#FORMAT	     : EMSA/MAS Spectral Data File
#VERSION     : 1.0
#TITLE       : Bi(0-3880eV)
#DATE        : 
#TIME        : 
#OWNER       : 
#NPOINTS     : 1024
#NCOLUMNS    : 1
#XUNITS      : eV
#YUNITS      : 
#DATATYPE    : XY
#XPERCHAN    : 4.000000e+000
#OFFSET      : -2.120000e+002
#SPECTRUM    : Spectral Data Starts Here
-2.120000e+002, 1.000000e-001
-2.080000e+002, 1.000000e-001
-2.040000e+002, 1.000000e-001
-2.000000e+002, 1.000000e-001
-1.960000e+002, 1.000000e-001
-1.920000e+002, 1.000000e-001
-1.880000e+002, 1.000000e-001
-1.840000e+002, 1.000000e-001
-1.800000e+002, 1.000000e-001
-1.760000e+002, 1.000000e-001
-1.720000e+002, 1.000000e-001
-1.680000e+002, 5.240000e+002
-1.640000e+002, 1.688000e+003
-1.600000e+002, 1.854000e+003
-1.560000e+002, 1.945000e+003
-1.520000e+002, 1.948000e+003
-1.480000e+002, 1.942000e+003
-1.440000e+002, 1.943000e+003
-1.400000e+002, 1.939000e+003
-1.360000e+002, 1.942000e+003
-1.320000e+002, 1.941000e+003
-1.280000e+002, 1.941000e+003
-1.240000e+002, 1.938000e+003
-1.200000e+002, 1.936000e+003
-1.160000e+002, 1.932000e+003
-1.120000e+002, 1.940000e+003
-1.080000e+002, 1.937000e+003
-1.040000e+002, 1.941000e+003
-1.000000e+002, 1.926000e+003
-9.600000e+001, 1.935000e+003
-9.200000e+001, 1.939000e+003
-8.800000e+001, 1.933000e+003
-8.400000e+001, 1.929000e+003
-8.000000e+001, 1.942000e+003
-7.600000e+001, 1.930000e+003
-7.200000e+001, 1.934000e+003
-6.800000e+001, 1.935000e+003
-6.400000e+001, 1.936000e+003
-6.000000e+001, 1.936000e+003
-5.600000e+001, 1.935000e+003
-5.200000e+001, 1.944000e+003
-4.800000e+001, 1.941000e+003
-4.400000e+001, 1.942000e+003
-4.000000e+001, 1.953000e+003
-3.600000e+001, 1.958000e+003
-3.200000e+001, 1.980000e+003
-2.800000e+001, 1.995000e+003
-2.400000e+001, 2.037000e+003
-2.000000e+001, 2.100000e+003
-1.600000e+001, 2.262000e+003
-1.200000e+001, 2.724000e+003
-8.000000e+000, 5.589000e+003
-4.000000e+000, 1.658110e+005
0.000000e+000, 1.448920e+006
4.000000e+000, 7.807500e+005
8.000000e+000, 2.399740e+005
1.200000e+001, 2.847190e+005
1.600000e+001, 3.444300e+005
2.000000e+001, 3.199720e+005
2.400000e+001, 2.412220e+005
2.800000e+001, 1.994350e+005
3.200000e+001, 1.619680e+005
3.600000e+001, 1.244360e+005
4.000000e+001, 1.118000e+005
4.400000e+001, 1.066150e+005
4.800000e+001, 1.038140e+005
5.200000e+001, 1.021720e+005
5.600000e+001, 9.844800e+004
6.000000e+001, 9.295700e+004
6.400000e+001, 8.708300e+004
6.800000e+001, 8.190110e+004
7.200000e+001, 7.633700e+004
7.600000e+001, 7.029300e+004
8.000000e+001, 6.459000e+004
8.400000e+001, 5.912500e+004
8.800000e+001, 5.389900e+004
9.200000e+001, 4.914100e+004
9.600000e+001, 4.501300e+004
1.000000e+002, 4.137200e+004
1.040000e+002, 3.826900e+004
1.080000e+002, 3.555500e+004
1.120000e+002, 3.310400e+004
1.160000e+002, 3.093400e+004
1.200000e+002, 2.904500e+004
1.240000e+002, 2.731700e+004
1.280000e+002, 2.577100e+004
1.320000e+002, 2.436200e+004
1.360000e+002, 2.303600e+004
1.400000e+002, 2.182100e+004
1.440000e+002, 2.067400e+004
1.480000e+002, 1.962700e+004
1.520000e+002, 1.865600e+004
1.560000e+002, 1.778300e+004
1.600000e+002, 1.701200e+004
1.640000e+002, 1.635200e+004
1.680000e+002, 1.576700e+004
1.720000e+002, 1.522400e+004
1.760000e+002, 8.596810e+004
1.800000e+002, 2.405160e+006
1.840000e+002, 3.677340e+006
1.880000e+002, 3.841180e+006
1.920000e+002, 3.771120e+006
1.960000e+002, 3.635430e+006
2.000000e+002, 3.522900e+006
2.040000e+002, 3.445810e+006
2.080000e+002, 3.391220e+006
2.120000e+002, 3.335680e+006
2.160000e+002, 3.249370e+006
2.200000e+002, 3.158830e+006
2.240000e+002, 3.068060e+006
2.280000e+002, 2.989100e+006
2.320000e+002, 2.925160e+006
2.360000e+002, 2.867060e+006
2.400000e+002, 2.806320e+006
2.440000e+002, 2.746840e+006
2.480000e+002, 2.691850e+006
2.520000e+002, 2.642030e+006
2.560000e+002, 2.596600e+006
2.600000e+002, 2.556610e+006
2.640000e+002, 2.515860e+006
2.680000e+002, 2.487800e+006
2.720000e+002, 2.450730e+006
2.760000e+002, 2.418520e+006
2.800000e+002, 2.399810e+006
2.840000e+002, 2.428580e+006
2.880000e+002, 2.442310e+006
2.920000e+002, 2.453260e+006
2.960000e+002, 2.447030e+006
3.000000e+002, 2.413660e+006
3.040000e+002, 2.363010e+006
3.080000e+002, 2.311930e+006
3.120000e+002, 2.275220e+006
3.160000e+002, 2.243650e+006
3.200000e+002, 2.218140e+006
3.240000e+002, 2.188530e+006
3.280000e+002, 2.156730e+006
3.320000e+002, 2.123930e+006
3.360000e+002, 2.099530e+006
3.400000e+002, 2.071950e+006
3.440000e+002, 2.047000e+006
3.480000e+002, 2.027180e+006
3.520000e+002, 1.995070e+006
3.560000e+002, 1.970580e+006
3.600000e+002, 1.942770e+006
3.640000e+002, 1.918100e+006
3.680000e+002, 1.894420e+006
3.720000e+002, 1.870780e+006
3.760000e+002, 1.844040e+006
3.800000e+002, 1.820240e+006
3.840000e+002, 1.793600e+006
3.880000e+002, 1.770810e+006
3.920000e+002, 1.747780e+006
3.960000e+002, 1.730090e+006
4.000000e+002, 1.704040e+006
4.040000e+002, 1.683900e+006
4.080000e+002, 1.660820e+006
4.120000e+002, 1.636060e+006
4.160000e+002, 1.614180e+006
4.200000e+002, 1.587220e+006
4.240000e+002, 1.564080e+006
4.280000e+002, 1.542400e+006
4.320000e+002, 1.522540e+006
4.360000e+002, 1.511820e+006
4.400000e+002, 1.502260e+006
4.440000e+002, 1.476710e+006
4.480000e+002, 1.458760e+006
4.520000e+002, 1.442750e+006
4.560000e+002, 1.430340e+006
4.600000e+002, 1.423860e+006
4.640000e+002, 1.408550e+006
4.680000e+002, 1.388430e+006
4.720000e+002, 1.369800e+006
4.760000e+002, 1.354740e+006
4.800000e+002, 1.339250e+006
4.840000e+002, 1.323900e+006
4.880000e+002, 1.308400e+006
4.920000e+002, 1.291020e+006
4.960000e+002, 1.277070e+006
5.000000e+002, 1.258430e+006
5.040000e+002, 1.241760e+006
5.080000e+002, 1.226510e+006
5.120000e+002, 1.210320e+006
5.160000e+002, 1.194540e+006
5.200000e+002, 1.180110e+006
5.240000e+002, 1.189560e+006
5.280000e+002, 1.222220e+006
5.320000e+002, 1.183120e+006
5.360000e+002, 1.175570e+006
5.400000e+002, 1.163580e+006
5.440000e+002, 1.146290e+006
5.480000e+002, 1.131540e+006
5.520000e+002, 1.116450e+006
5.560000e+002, 1.104220e+006
5.600000e+002, 1.088110e+006
5.640000e+002, 1.075930e+006
5.680000e+002, 1.060910e+006
5.720000e+002, 1.048740e+006
5.760000e+002, 1.037570e+006
5.800000e+002, 1.024910e+006
5.840000e+002, 1.011670e+006
5.880000e+002, 9.980290e+005
5.920000e+002, 9.860350e+005
5.960000e+002, 9.758960e+005
6.000000e+002, 9.620130e+005
6.040000e+002, 9.504480e+005
6.080000e+002, 9.375230e+005
6.120000e+002, 9.256600e+005
6.160000e+002, 9.130330e+005
6.200000e+002, 9.037720e+005
6.240000e+002, 8.902010e+005
6.280000e+002, 8.806390e+005
6.320000e+002, 8.692130e+005
6.360000e+002, 8.576090e+005
6.400000e+002, 8.468310e+005
6.440000e+002, 8.372500e+005
6.480000e+002, 8.262950e+005
6.520000e+002, 8.167660e+005
6.560000e+002, 8.053420e+005
6.600000e+002, 7.946940e+005
6.640000e+002, 7.872250e+005
6.680000e+002, 7.781220e+005
6.720000e+002, 7.737120e+005
6.760000e+002, 7.674480e+005
6.800000e+002, 7.621270e+005
6.840000e+002, 7.546340e+005
6.880000e+002, 7.460810e+005
6.920000e+002, 7.373640e+005
6.960000e+002, 7.288640e+005
7.000000e+002, 7.210030e+005
7.040000e+002, 7.118120e+005
7.080000e+002, 7.043140e+005
7.120000e+002, 6.958540e+005
7.160000e+002, 6.853790e+005
7.200000e+002, 6.781300e+005
7.240000e+002, 6.710690e+005
7.280000e+002, 6.634190e+005
7.320000e+002, 6.548700e+005
7.360000e+002, 6.460670e+005
7.400000e+002, 6.400660e+005
7.440000e+002, 6.317360e+005
7.480000e+002, 6.243610e+005
7.520000e+002, 6.171120e+005
7.560000e+002, 6.095960e+005
7.600000e+002, 6.046210e+005
7.640000e+002, 5.963670e+005
7.680000e+002, 5.873880e+005
7.720000e+002, 5.809980e+005
7.760000e+002, 5.738310e+005
7.800000e+002, 5.674120e+005
7.840000e+002, 5.598950e+005
7.880000e+002, 5.551940e+005
7.920000e+002, 5.475010e+005
7.960000e+002, 5.418760e+005
8.000000e+002, 5.371230e+005
8.040000e+002, 5.313150e+005
8.080000e+002, 5.253590e+005
8.120000e+002, 5.187990e+005
8.160000e+002, 5.131100e+005
8.200000e+002, 5.060610e+005
8.240000e+002, 5.005860e+005
8.280000e+002, 4.961900e+005
8.320000e+002, 4.893820e+005
8.360000e+002, 4.845950e+005
8.400000e+002, 4.776750e+005
8.440000e+002, 4.730240e+005
8.480000e+002, 4.667160e+005
8.520000e+002, 4.625120e+005
8.560000e+002, 4.569340e+005
8.600000e+002, 4.514020e+005
8.640000e+002, 4.457470e+005
8.680000e+002, 4.424760e+005
8.720000e+002, 4.355120e+005
8.760000e+002, 4.311160e+005
8.800000e+002, 4.266670e+005
8.840000e+002, 4.214210e+005
8.880000e+002, 4.165070e+005
8.920000e+002, 4.122700e+005
8.960000e+002, 4.080070e+005
9.000000e+002, 4.020120e+005
9.040000e+002, 3.968470e+005
9.080000e+002, 3.932140e+005
9.120000e+002, 3.896190e+005
9.160000e+002, 3.845390e+005
9.200000e+002, 3.807500e+005
9.240000e+002, 3.784680e+005
9.280000e+002, 3.747990e+005
9.320000e+002, 3.706660e+005
9.360000e+002, 3.664240e+005
9.400000e+002, 3.611960e+005
9.440000e+002, 3.592040e+005
9.480000e+002, 3.562490e+005
9.520000e+002, 3.510550e+005
9.560000e+002, 3.471660e+005
9.600000e+002, 3.443620e+005
9.640000e+002, 3.401610e+005
9.680000e+002, 3.364290e+005
9.720000e+002, 3.328610e+005
9.760000e+002, 3.299410e+005
9.800000e+002, 3.261370e+005
9.840000e+002, 3.232860e+005
9.880000e+002, 3.200950e+005
9.920000e+002, 3.155760e+005
9.960000e+002, 3.129290e+005
1.000000e+003, 3.083360e+005
1.004000e+003, 3.048900e+005
1.008000e+003, 3.025690e+005
1.012000e+003, 2.975530e+005
1.016000e+003, 2.954410e+005
1.020000e+003, 2.921980e+005
1.024000e+003, 2.881430e+005
1.028000e+003, 2.854980e+005
1.032000e+003, 2.828580e+005
1.036000e+003, 2.798870e+005
1.040000e+003, 2.766800e+005
1.044000e+003, 2.731540e+005
1.048000e+003, 2.707110e+005
1.052000e+003, 2.665080e+005
1.056000e+003, 2.649140e+005
1.060000e+003, 2.620620e+005
1.064000e+003, 2.588130e+005
1.068000e+003, 2.559740e+005
1.072000e+003, 2.537030e+005
1.076000e+003, 2.510950e+005
1.080000e+003, 2.472130e+005
1.084000e+003, 2.452590e+005
1.088000e+003, 2.426470e+005
1.092000e+003, 2.400120e+005
1.096000e+003, 2.391600e+005
1.100000e+003, 2.348630e+005
1.104000e+003, 2.318790e+005
1.108000e+003, 2.303690e+005
1.112000e+003, 2.274760e+005
1.116000e+003, 2.257010e+005
1.120000e+003, 2.233270e+005
1.124000e+003, 2.208570e+005
1.128000e+003, 2.181170e+005
1.132000e+003, 2.160400e+005
1.136000e+003, 2.136020e+005
1.140000e+003, 2.117550e+005
1.144000e+003, 2.090300e+005
1.148000e+003, 2.064960e+005
1.152000e+003, 2.048250e+005
1.156000e+003, 2.025600e+005
1.160000e+003, 2.001080e+005
1.164000e+003, 1.974780e+005
1.168000e+003, 1.963650e+005
1.172000e+003, 1.934580e+005
1.176000e+003, 1.915420e+005
1.180000e+003, 1.897470e+005
1.184000e+003, 1.876270e+005
1.188000e+003, 1.863280e+005
1.192000e+003, 1.838520e+005
1.196000e+003, 1.821650e+005
1.200000e+003, 1.795950e+005
1.204000e+003, 1.793100e+005
1.208000e+003, 1.768610e+005
1.212000e+003, 1.749680e+005
1.216000e+003, 1.721310e+005
1.220000e+003, 1.705070e+005
1.224000e+003, 1.696660e+005
1.228000e+003, 1.671060e+005
1.232000e+003, 1.654410e+005
1.236000e+003, 1.640580e+005
1.240000e+003, 1.623210e+005
1.244000e+003, 1.604000e+005
1.248000e+003, 1.590260e+005
1.252000e+003, 1.573310e+005
1.256000e+003, 1.556740e+005
1.260000e+003, 1.540640e+005
1.264000e+003, 1.524870e+005
1.268000e+003, 1.511280e+005
1.272000e+003, 1.489500e+005
1.276000e+003, 1.482500e+005
1.280000e+003, 1.461390e+005
1.284000e+003, 1.455160e+005
1.288000e+003, 1.436070e+005
1.292000e+003, 1.420510e+005
1.296000e+003, 1.403440e+005
1.300000e+003, 1.391590e+005
1.304000e+003, 1.376690e+005
1.308000e+003, 1.363730e+005
1.312000e+003, 1.349280e+005
1.316000e+003, 1.330900e+005
1.320000e+003, 1.322780e+005
1.324000e+003, 1.311650e+005
1.328000e+003, 1.292410e+005
1.332000e+003, 1.277750e+005
1.336000e+003, 1.261010e+005
1.340000e+003, 1.265090e+005
1.344000e+003, 1.247440e+005
1.348000e+003, 1.233780e+005
1.352000e+003, 1.217340e+005
1.356000e+003, 1.208560e+005
1.360000e+003, 1.192600e+005
1.364000e+003, 1.176240e+005
1.368000e+003, 1.176770e+005
1.372000e+003, 1.163010e+005
1.376000e+003, 1.149700e+005
1.380000e+003, 1.133510e+005
1.384000e+003, 1.129030e+005
1.388000e+003, 1.118230e+005
1.392000e+003, 1.107640e+005
1.396000e+003, 1.088800e+005
1.400000e+003, 1.076080e+005
1.404000e+003, 1.070800e+005
1.408000e+003, 1.065170e+005
1.412000e+003, 1.048460e+005
1.416000e+003, 1.042860e+005
1.420000e+003, 1.028580e+005
1.424000e+003, 1.020020e+005
1.428000e+003, 1.013090e+005
1.432000e+003, 1.006550e+005
1.436000e+003, 9.905110e+004
1.440000e+003, 9.771700e+004
1.444000e+003, 9.752300e+004
1.448000e+003, 9.601200e+004
1.452000e+003, 9.528890e+004
1.456000e+003, 9.396300e+004
1.460000e+003, 9.319210e+004
1.464000e+003, 9.240310e+004
1.468000e+003, 9.113300e+004
1.472000e+003, 9.111300e+004
1.476000e+003, 8.979300e+004
1.480000e+003, 8.897300e+004
1.484000e+003, 8.783800e+004
1.488000e+003, 8.726810e+004
1.492000e+003, 8.681210e+004
1.496000e+003, 8.581500e+004
1.500000e+003, 8.526000e+004
1.504000e+003, 8.368100e+004
1.508000e+003, 8.315700e+004
1.512000e+003, 8.214000e+004
1.516000e+003, 8.153300e+004
1.520000e+003, 8.089300e+004
1.524000e+003, 8.007110e+004
1.528000e+003, 7.932210e+004
1.532000e+003, 7.916500e+004
1.536000e+003, 7.760700e+004
1.540000e+003, 7.728900e+004
1.544000e+003, 7.682400e+004
1.548000e+003, 7.560700e+004
1.552000e+003, 7.463700e+004
1.556000e+003, 7.406010e+004
1.560000e+003, 7.346800e+004
1.564000e+003, 7.262900e+004
1.568000e+003, 7.214100e+004
1.572000e+003, 7.138100e+004
1.576000e+003, 7.072700e+004
1.580000e+003, 7.001400e+004
1.584000e+003, 6.970900e+004
1.588000e+003, 6.914100e+004
1.592000e+003, 6.859010e+004
1.596000e+003, 6.746500e+004
1.600000e+003, 6.720800e+004
1.604000e+003, 6.666800e+004
1.608000e+003, 6.602900e+004
1.612000e+003, 6.546000e+004
1.616000e+003, 6.456100e+004
1.620000e+003, 6.442400e+004
1.624000e+003, 6.351800e+004
1.628000e+003, 6.330600e+004
1.632000e+003, 6.248600e+004
1.636000e+003, 6.229800e+004
1.640000e+003, 6.151300e+004
1.644000e+003, 6.099900e+004
1.648000e+003, 6.006300e+004
1.652000e+003, 5.964200e+004
1.656000e+003, 5.950110e+004
1.660000e+003, 5.821400e+004
1.664000e+003, 5.819700e+004
1.668000e+003, 5.742500e+004
1.672000e+003, 5.737500e+004
1.676000e+003, 5.660400e+004
1.680000e+003, 5.596310e+004
1.684000e+003, 5.500000e+004
1.688000e+003, 5.491400e+004
1.692000e+003, 5.453100e+004
1.696000e+003, 5.390200e+004
1.700000e+003, 5.436600e+004
1.704000e+003, 5.333500e+004
1.708000e+003, 5.245900e+004
1.712000e+003, 5.231100e+004
1.716000e+003, 5.178400e+004
1.720000e+003, 5.114600e+004
1.724000e+003, 5.046100e+004
1.728000e+003, 5.060600e+004
1.732000e+003, 4.994000e+004
1.736000e+003, 4.954400e+004
1.740000e+003, 4.916100e+004
1.744000e+003, 4.883500e+004
1.748000e+003, 4.832700e+004
1.752000e+003, 4.783300e+004
1.756000e+003, 4.739000e+004
1.760000e+003, 4.684400e+004
1.764000e+003, 4.637900e+004
1.768000e+003, 4.638200e+004
1.772000e+003, 4.594600e+004
1.776000e+003, 4.523400e+004
1.780000e+003, 4.510800e+004
1.784000e+003, 4.408500e+004
1.788000e+003, 4.472800e+004
1.792000e+003, 4.402500e+004
1.796000e+003, 4.354900e+004
1.800000e+003, 4.331400e+004
1.804000e+003, 4.261600e+004
1.808000e+003, 4.247700e+004
1.812000e+003, 4.209400e+004
1.816000e+003, 4.197000e+004
1.820000e+003, 4.141200e+004
1.824000e+003, 4.129800e+004
1.828000e+003, 4.096400e+004
1.832000e+003, 4.042900e+004
1.836000e+003, 4.041600e+004
1.840000e+003, 4.002200e+004
1.844000e+003, 3.936600e+004
1.848000e+003, 3.901100e+004
1.852000e+003, 3.906500e+004
1.856000e+003, 3.840500e+004
1.860000e+003, 3.807600e+004
1.864000e+003, 3.785600e+004
1.868000e+003, 3.781600e+004
1.872000e+003, 3.740900e+004
1.876000e+003, 3.716100e+004
1.880000e+003, 3.664800e+004
1.884000e+003, 3.610900e+004
1.888000e+003, 3.613400e+004
1.892000e+003, 3.577300e+004
1.896000e+003, 3.551400e+004
1.900000e+003, 3.530000e+004
1.904000e+003, 3.492000e+004
1.908000e+003, 3.507400e+004
1.912000e+003, 3.429900e+004
1.916000e+003, 3.433100e+004
1.920000e+003, 3.396900e+004
1.924000e+003, 3.340600e+004
1.928000e+003, 3.342700e+004
1.932000e+003, 3.300000e+004
1.936000e+003, 3.244000e+004
1.940000e+003, 3.240900e+004
1.944000e+003, 3.217900e+004
1.948000e+003, 3.196300e+004
1.952000e+003, 3.149600e+004
1.956000e+003, 3.151700e+004
1.960000e+003, 3.112300e+004
1.964000e+003, 3.121700e+004
1.968000e+003, 3.087400e+004
1.972000e+003, 2.990600e+004
1.976000e+003, 3.035600e+004
1.980000e+003, 2.990500e+004
1.984000e+003, 3.009300e+004
1.988000e+003, 2.957600e+004
1.992000e+003, 2.954300e+004
1.996000e+003, 2.913600e+004
2.000000e+003, 2.904800e+004
2.004000e+003, 2.872100e+004
2.008000e+003, 2.860800e+004
2.012000e+003, 2.811100e+004
2.016000e+003, 2.783700e+004
2.020000e+003, 2.754700e+004
2.024000e+003, 2.760300e+004
2.028000e+003, 2.757000e+004
2.032000e+003, 2.739800e+004
2.036000e+003, 2.698000e+004
2.040000e+003, 2.690600e+004
2.044000e+003, 2.641300e+004
2.048000e+003, 2.636600e+004
2.052000e+003, 2.610500e+004
2.056000e+003, 2.595700e+004
2.060000e+003, 2.567300e+004
2.064000e+003, 2.561400e+004
2.068000e+003, 2.552400e+004
2.072000e+003, 2.522800e+004
2.076000e+003, 2.505700e+004
2.080000e+003, 2.485800e+004
2.084000e+003, 2.492600e+004
2.088000e+003, 2.464500e+004
2.092000e+003, 2.428000e+004
2.096000e+003, 2.414000e+004
2.100000e+003, 2.374800e+004
2.104000e+003, 2.358200e+004
2.108000e+003, 2.365100e+004
2.112000e+003, 2.344100e+004
2.116000e+003, 2.335800e+004
2.120000e+003, 2.298600e+004
2.124000e+003, 2.288400e+004
2.128000e+003, 2.286700e+004
2.132000e+003, 2.284800e+004
2.136000e+003, 2.239600e+004
2.140000e+003, 2.245300e+004
2.144000e+003, 2.210400e+004
2.148000e+003, 2.199800e+004
2.152000e+003, 2.165200e+004
2.156000e+003, 2.183100e+004
2.160000e+003, 2.158900e+004
2.164000e+003, 2.159300e+004
2.168000e+003, 2.132500e+004
2.172000e+003, 2.125300e+004
2.176000e+003, 2.073900e+004
2.180000e+003, 2.080100e+004
2.184000e+003, 2.063200e+004
2.188000e+003, 2.055100e+004
2.192000e+003, 2.052600e+004
2.196000e+003, 2.030200e+004
2.200000e+003, 1.981400e+004
2.204000e+003, 2.014100e+004
2.208000e+003, 2.018800e+004
2.212000e+003, 1.962700e+004
2.216000e+003, 1.949900e+004
2.220000e+003, 1.927700e+004
2.224000e+003, 1.951200e+004
2.228000e+003, 1.926900e+004
2.232000e+003, 1.916700e+004
2.236000e+003, 1.886500e+004
2.240000e+003, 1.868700e+004
2.244000e+003, 1.876400e+004
2.248000e+003, 1.868600e+004
2.252000e+003, 1.858800e+004
2.256000e+003, 1.838000e+004
2.260000e+003, 1.814300e+004
2.264000e+003, 1.791900e+004
2.268000e+003, 1.798900e+004
2.272000e+003, 1.778500e+004
2.276000e+003, 1.760400e+004
2.280000e+003, 1.767700e+004
2.284000e+003, 1.743500e+004
2.288000e+003, 1.711300e+004
2.292000e+003, 1.750500e+004
2.296000e+003, 1.711100e+004
2.300000e+003, 1.693500e+004
2.304000e+003, 1.710400e+004
2.308000e+003, 1.670400e+004
2.312000e+003, 1.662300e+004
2.316000e+003, 1.640800e+004
2.320000e+003, 1.636800e+004
2.324000e+003, 1.620200e+004
2.328000e+003, 1.613200e+004
2.332000e+003, 1.629500e+004
2.336000e+003, 1.593800e+004
2.340000e+003, 1.596500e+004
2.344000e+003, 1.566000e+004
2.348000e+003, 1.583500e+004
2.352000e+003, 1.573200e+004
2.356000e+003, 1.566400e+004
2.360000e+003, 1.550600e+004
2.364000e+003, 1.530200e+004
2.368000e+003, 1.511000e+004
2.372000e+003, 1.538300e+004
2.376000e+003, 1.499000e+004
2.380000e+003, 1.487400e+004
2.384000e+003, 1.465700e+004
2.388000e+003, 1.475500e+004
2.392000e+003, 1.458000e+004
2.396000e+003, 1.446000e+004
2.400000e+003, 1.456100e+004
2.404000e+003, 1.425500e+004
2.408000e+003, 1.428100e+004
2.412000e+003, 1.446600e+004
2.416000e+003, 1.423400e+004
2.420000e+003, 1.400200e+004
2.424000e+003, 1.392500e+004
2.428000e+003, 1.383000e+004
2.432000e+003, 1.370000e+004
2.436000e+003, 1.339200e+004
2.440000e+003, 1.369400e+004
2.444000e+003, 1.355700e+004
2.448000e+003, 1.348700e+004
2.452000e+003, 1.337800e+004
2.456000e+003, 1.344900e+004
2.460000e+003, 1.325800e+004
2.464000e+003, 1.299000e+004
2.468000e+003, 1.307300e+004
2.472000e+003, 1.291900e+004
2.476000e+003, 1.306800e+004
2.480000e+003, 1.294600e+004
2.484000e+003, 1.290500e+004
2.488000e+003, 1.271200e+004
2.492000e+003, 1.288200e+004
2.496000e+003, 1.258700e+004
2.500000e+003, 1.233400e+004
2.504000e+003, 1.245900e+004
2.508000e+003, 1.221100e+004
2.512000e+003, 1.236700e+004
2.516000e+003, 1.218600e+004
2.520000e+003, 1.220300e+004
2.524000e+003, 1.202000e+004
2.528000e+003, 1.184300e+004
2.532000e+003, 1.206000e+004
2.536000e+003, 1.192000e+004
2.540000e+003, 1.183100e+004
2.544000e+003, 1.183300e+004
2.548000e+003, 1.169400e+004
2.552000e+003, 1.164000e+004
2.556000e+003, 1.177600e+004
2.560000e+003, 1.156500e+004
2.564000e+003, 1.155600e+004
2.568000e+003, 1.202300e+004
2.572000e+003, 1.259300e+004
2.576000e+003, 1.347700e+004
2.580000e+003, 1.389700e+004
2.584000e+003, 1.441800e+004
2.588000e+003, 1.425800e+004
2.592000e+003, 1.443300e+004
2.596000e+003, 1.456400e+004
2.600000e+003, 1.450700e+004
2.604000e+003, 1.454200e+004
2.608000e+003, 1.490300e+004
2.612000e+003, 1.467400e+004
2.616000e+003, 1.467500e+004
2.620000e+003, 1.474900e+004
2.624000e+003, 1.463500e+004
2.628000e+003, 1.452300e+004
2.632000e+003, 1.438800e+004
2.636000e+003, 1.440100e+004
2.640000e+003, 1.429300e+004
2.644000e+003, 1.434600e+004
2.648000e+003, 1.436200e+004
2.652000e+003, 1.409800e+004
2.656000e+003, 1.420000e+004
2.660000e+003, 1.414800e+004
2.664000e+003, 1.412400e+004
2.668000e+003, 1.408100e+004
2.672000e+003, 1.411000e+004
2.676000e+003, 1.435700e+004
2.680000e+003, 1.465600e+004
2.684000e+003, 1.509400e+004
2.688000e+003, 1.560600e+004
2.692000e+003, 1.566400e+004
2.696000e+003, 1.567200e+004
2.700000e+003, 1.594400e+004
2.704000e+003, 1.580800e+004
2.708000e+003, 1.579300e+004
2.712000e+003, 1.590200e+004
2.716000e+003, 1.583300e+004
2.720000e+003, 1.575400e+004
2.724000e+003, 1.567100e+004
2.728000e+003, 1.578500e+004
2.732000e+003, 1.559400e+004
2.736000e+003, 1.591700e+004
2.740000e+003, 1.549300e+004
2.744000e+003, 1.543300e+004
2.748000e+003, 1.552000e+004
2.752000e+003, 1.520200e+004
2.756000e+003, 1.548400e+004
2.760000e+003, 1.538500e+004
2.764000e+003, 1.523200e+004
2.768000e+003, 1.541900e+004
2.772000e+003, 1.525700e+004
2.776000e+003, 1.531700e+004
2.780000e+003, 1.530200e+004
2.784000e+003, 1.495000e+004
2.788000e+003, 1.497500e+004
2.792000e+003, 1.500800e+004
2.796000e+003, 1.507900e+004
2.800000e+003, 1.506000e+004
2.804000e+003, 1.498100e+004
2.808000e+003, 1.502500e+004
2.812000e+003, 1.471700e+004
2.816000e+003, 1.488000e+004
2.820000e+003, 1.465400e+004
2.824000e+003, 1.463000e+004
2.828000e+003, 1.467100e+004
2.832000e+003, 1.472300e+004
2.836000e+003, 1.444400e+004
2.840000e+003, 1.446600e+004
2.844000e+003, 1.453000e+004
2.848000e+003, 1.441400e+004
2.852000e+003, 1.440300e+004
2.856000e+003, 1.421900e+004
2.860000e+003, 1.423600e+004
2.864000e+003, 1.428600e+004
2.868000e+003, 1.414900e+004
2.872000e+003, 1.407600e+004
2.876000e+003, 1.394900e+004
2.880000e+003, 1.387300e+004
2.884000e+003, 1.394100e+004
2.888000e+003, 1.380700e+004
2.892000e+003, 1.391800e+004
2.896000e+003, 1.380300e+004
2.900000e+003, 1.370000e+004
2.904000e+003, 1.370900e+004
2.908000e+003, 1.348700e+004
2.912000e+003, 1.369400e+004
2.916000e+003, 1.346300e+004
2.920000e+003, 1.331300e+004
2.924000e+003, 1.344900e+004
2.928000e+003, 1.334900e+004
2.932000e+003, 1.335100e+004
2.936000e+003, 1.302900e+004
2.940000e+003, 1.324300e+004
2.944000e+003, 1.294600e+004
2.948000e+003, 1.308200e+004
2.952000e+003, 1.305200e+004
2.956000e+003, 1.310500e+004
2.960000e+003, 1.289900e+004
2.964000e+003, 1.254000e+004
2.968000e+003, 1.267000e+004
2.972000e+003, 1.274300e+004
2.976000e+003, 1.265400e+004
2.980000e+003, 1.277500e+004
2.984000e+003, 1.238500e+004
2.988000e+003, 1.250000e+004
2.992000e+003, 1.238000e+004
2.996000e+003, 1.226700e+004
3.000000e+003, 1.235000e+004
3.004000e+003, 1.217500e+004
3.008000e+003, 1.215900e+004
3.012000e+003, 1.242400e+004
3.016000e+003, 1.202000e+004
3.020000e+003, 1.210800e+004
3.024000e+003, 1.218100e+004
3.028000e+003, 1.182500e+004
3.032000e+003, 1.179000e+004
3.036000e+003, 1.167700e+004
3.040000e+003, 1.177200e+004
3.044000e+003, 1.174800e+004
3.048000e+003, 1.185300e+004
3.052000e+003, 1.160900e+004
3.056000e+003, 1.153700e+004
3.060000e+003, 1.170500e+004
3.064000e+003, 1.142300e+004
3.068000e+003, 1.140000e+004
3.072000e+003, 1.143600e+004
3.076000e+003, 1.134500e+004
3.080000e+003, 1.126100e+004
3.084000e+003, 1.128800e+004
3.088000e+003, 1.135500e+004
3.092000e+003, 1.102000e+004
3.096000e+003, 1.120200e+004
3.100000e+003, 1.116700e+004
3.104000e+003, 1.106900e+004
3.108000e+003, 1.081700e+004
3.112000e+003, 1.106300e+004
3.116000e+003, 1.078900e+004
3.120000e+003, 1.088400e+004
3.124000e+003, 1.080600e+004
3.128000e+003, 1.079700e+004
3.132000e+003, 1.077800e+004
3.136000e+003, 1.053200e+004
3.140000e+003, 1.062000e+004
3.144000e+003, 1.052900e+004
3.148000e+003, 1.066900e+004
3.152000e+003, 1.088800e+004
3.156000e+003, 1.094700e+004
3.160000e+003, 1.076900e+004
3.164000e+003, 1.088500e+004
3.168000e+003, 1.090800e+004
3.172000e+003, 1.123600e+004
3.176000e+003, 1.097300e+004
3.180000e+003, 1.105500e+004
3.184000e+003, 1.087800e+004
3.188000e+003, 1.092100e+004
3.192000e+003, 1.092100e+004
3.196000e+003, 1.077700e+004
3.200000e+003, 1.075500e+004
3.204000e+003, 1.076600e+004
3.208000e+003, 1.057900e+004
3.212000e+003, 1.070200e+004
3.216000e+003, 1.061600e+004
3.220000e+003, 1.037600e+004
3.224000e+003, 1.054600e+004
3.228000e+003, 1.059300e+004
3.232000e+003, 1.055600e+004
3.236000e+003, 1.039100e+004
3.240000e+003, 1.045200e+004
3.244000e+003, 1.047200e+004
3.248000e+003, 1.040200e+004
3.252000e+003, 1.036700e+004
3.256000e+003, 1.017300e+004
3.260000e+003, 1.034600e+004
3.264000e+003, 1.030000e+004
3.268000e+003, 9.962010e+003
3.272000e+003, 1.008800e+004
3.276000e+003, 1.002200e+004
3.280000e+003, 1.007600e+004
3.284000e+003, 9.991010e+003
3.288000e+003, 9.871000e+003
3.292000e+003, 9.824000e+003
3.296000e+003, 9.932000e+003
3.300000e+003, 9.700000e+003
3.304000e+003, 9.797010e+003
3.308000e+003, 9.856010e+003
3.312000e+003, 9.840000e+003
3.316000e+003, 9.748000e+003
3.320000e+003, 9.670000e+003
3.324000e+003, 9.577010e+003
3.328000e+003, 9.526000e+003
3.332000e+003, 9.507000e+003
3.336000e+003, 9.417000e+003
3.340000e+003, 9.459000e+003
3.344000e+003, 9.342000e+003
3.348000e+003, 9.325000e+003
3.352000e+003, 9.379000e+003
3.356000e+003, 9.281010e+003
3.360000e+003, 9.213000e+003
3.364000e+003, 9.210000e+003
3.368000e+003, 9.220000e+003
3.372000e+003, 9.294000e+003
3.376000e+003, 8.896000e+003
3.380000e+003, 9.075000e+003
3.384000e+003, 8.936000e+003
3.388000e+003, 9.092000e+003
3.392000e+003, 8.885010e+003
3.396000e+003, 9.033000e+003
3.400000e+003, 9.019010e+003
3.404000e+003, 8.768000e+003
3.408000e+003, 8.859000e+003
3.412000e+003, 8.771010e+003
3.416000e+003, 8.871000e+003
3.420000e+003, 8.641000e+003
3.424000e+003, 8.779000e+003
3.428000e+003, 8.677000e+003
3.432000e+003, 8.526000e+003
3.436000e+003, 8.485000e+003
3.440000e+003, 8.527000e+003
3.444000e+003, 8.375000e+003
3.448000e+003, 8.701010e+003
3.452000e+003, 8.560000e+003
3.456000e+003, 8.564000e+003
3.460000e+003, 8.409000e+003
3.464000e+003, 8.429000e+003
3.468000e+003, 8.344000e+003
3.472000e+003, 8.291010e+003
3.476000e+003, 8.386000e+003
3.480000e+003, 8.258000e+003
3.484000e+003, 8.276000e+003
3.488000e+003, 8.280000e+003
3.492000e+003, 8.102000e+003
3.496000e+003, 8.081000e+003
3.500000e+003, 8.090000e+003
3.504000e+003, 8.026000e+003
3.508000e+003, 7.999000e+003
3.512000e+003, 7.915000e+003
3.516000e+003, 8.024000e+003
3.520000e+003, 8.016000e+003
3.524000e+003, 7.786000e+003
3.528000e+003, 7.846000e+003
3.532000e+003, 8.077000e+003
3.536000e+003, 7.777010e+003
3.540000e+003, 7.775000e+003
3.544000e+003, 7.756000e+003
3.548000e+003, 7.864000e+003
3.552000e+003, 7.592010e+003
3.556000e+003, 7.712000e+003
3.560000e+003, 7.896000e+003
3.564000e+003, 7.680000e+003
3.568000e+003, 7.855000e+003
3.572000e+003, 7.579010e+003
3.576000e+003, 7.431000e+003
3.580000e+003, 7.579010e+003
3.584000e+003, 7.483000e+003
3.588000e+003, 7.471000e+003
3.592000e+003, 7.529000e+003
3.596000e+003, 7.493000e+003
3.600000e+003, 7.304000e+003
3.604000e+003, 7.454000e+003
3.608000e+003, 7.414000e+003
3.612000e+003, 7.255000e+003
3.616000e+003, 7.378000e+003
3.620000e+003, 7.402000e+003
3.624000e+003, 7.505000e+003
3.628000e+003, 7.230000e+003
3.632000e+003, 7.062000e+003
3.636000e+003, 7.263010e+003
3.640000e+003, 7.192000e+003
3.644000e+003, 7.131000e+003
3.648000e+003, 7.157000e+003
3.652000e+003, 7.133000e+003
3.656000e+003, 7.070000e+003
3.660000e+003, 7.195000e+003
3.664000e+003, 6.987000e+003
3.668000e+003, 6.956000e+003
3.672000e+003, 7.212010e+003
3.676000e+003, 6.787000e+003
3.680000e+003, 7.194000e+003
3.684000e+003, 7.167000e+003
3.688000e+003, 6.897000e+003
3.692000e+003, 6.972000e+003
3.696000e+003, 7.112000e+003
3.700000e+003, 6.986000e+003
3.704000e+003, 7.005000e+003
3.708000e+003, 6.873000e+003
3.712000e+003, 6.844000e+003
3.716000e+003, 6.875000e+003
3.720000e+003, 6.955000e+003
3.724000e+003, 6.901000e+003
3.728000e+003, 6.844000e+003
3.732000e+003, 6.862010e+003
3.736000e+003, 6.812000e+003
3.740000e+003, 6.670000e+003
3.744000e+003, 6.782000e+003
3.748000e+003, 6.693000e+003
3.752000e+003, 6.690000e+003
3.756000e+003, 6.579000e+003
3.760000e+003, 6.647000e+003
3.764000e+003, 6.722000e+003
3.768000e+003, 6.730000e+003
3.772000e+003, 6.604000e+003
3.776000e+003, 6.423000e+003
3.780000e+003, 6.667000e+003
3.784000e+003, 6.623000e+003
3.788000e+003, 6.549000e+003
3.792000e+003, 6.378000e+003
3.796000e+003, 6.512000e+003
3.800000e+003, 6.408000e+003
3.804000e+003, 6.550000e+003
3.808000e+003, 6.470000e+003
3.812000e+003, 6.361000e+003
3.816000e+003, 6.329000e+003
3.820000e+003, 6.542000e+003
3.824000e+003, 6.266000e+003
3.828000e+003, 6.419000e+003
3.832000e+003, 6.373000e+003
3.836000e+003, 1.000000e-001
3.840000e+003, 1.000000e-001
3.844000e+003, 1.000000e-001
3.848000e+003, 1.000000e-001
3.852000e+003, 1.000000e-001
3.856000e+003, 1.000000e-001
3.860000e+003, 1.000000e-001
3.864000e+003, 1.000000e-001
3.868000e+003, 1.000000e-001
3.872000e+003, 1.000000e-001
3.876000e+003, 1.000000e-001
3.880000e+003, 2.007700e+004
#ENDOFDATA   : End Of Data and File