#FORMAT	     : EMSA/MAS Spectral Data File
#VERSION     : 1.0
#TITLE       : Se(0-1880eV)
#DATE        : 
#TIME        : 
#OWNER       : 
#NPOINTS     : 1024
#NCOLUMNS    : 1
#XUNITS      : eV
#YUNITS      : 
#DATATYPE    : XY
#XPERCHAN    : 2.000000e+000
#OFFSET      : -1.640000e+002
#SPECTRUM    : Spectral Data Starts Here
-1.640000e+002, 1.000000e-001
-1.620000e+002, 1.000000e-001
-1.600000e+002, 1.000000e-001
-1.580000e+002, 1.000000e-001
-1.560000e+002, 1.000000e-001
-1.540000e+002, 1.000000e-001
-1.520000e+002, 1.000000e-001
-1.500000e+002, 1.000000e-001
-1.480000e+002, 1.000000e-001
-1.460000e+002, 1.000000e-001
-1.440000e+002, 1.000000e-001
-1.420000e+002, 1.237000e+004
-1.400000e+002, 2.300000e+002
-1.380000e+002, 1.600000e+002
-1.360000e+002, 1.400000e+002
-1.340000e+002, 1.200000e+002
-1.320000e+002, 1.100000e+002
-1.300000e+002, 1.200000e+002
-1.280000e+002, 1.100000e+002
-1.260000e+002, 1.000000e+002
-1.240000e+002, 1.000000e+002
-1.220000e+002, 9.000000e+001
-1.200000e+002, 1.000000e+002
-1.180000e+002, 9.000000e+001
-1.160000e+002, 9.000000e+001
-1.140000e+002, 1.000000e-001
-1.120000e+002, 1.000000e-001
-1.100000e+002, 1.000000e-001
-1.080000e+002, 1.000000e-001
-1.060000e+002, 1.000000e-001
-1.040000e+002, 1.000000e-001
-1.020000e+002, 1.000000e+001
-1.000000e+002, 1.000000e+001
-9.800000e+001, 1.000000e-001
-9.600000e+001, 1.000000e-001
-9.400000e+001, 1.000000e-001
-9.200000e+001, 1.000000e+001
-9.000000e+001, 1.000000e+001
-8.800000e+001, 1.000000e+001
-8.600000e+001, 1.000000e-001
-8.400000e+001, 1.000000e-001
-8.200000e+001, 1.000000e-001
-8.000000e+001, 1.000000e-001
-7.800000e+001, 1.000000e-001
-7.600000e+001, 1.000000e-001
-7.400000e+001, 1.000000e-001
-7.200000e+001, 1.000000e-001
-7.000000e+001, 1.000000e+001
-6.800000e+001, 1.000000e-001
-6.600000e+001, 1.000000e-001
-6.400000e+001, 1.000000e+001
-6.200000e+001, 1.000000e+001
-6.000000e+001, 1.000000e+001
-5.800000e+001, 1.000000e+001
-5.600000e+001, 1.000000e+001
-5.400000e+001, 1.000000e+001
-5.200000e+001, 1.000000e-001
-5.000000e+001, 1.000000e+001
-4.800000e+001, 2.000000e+001
-4.600000e+001, 1.000000e+001
-4.400000e+001, 1.000000e+001
-4.200000e+001, 2.000000e+001
-4.000000e+001, 2.000000e+001
-3.800000e+001, 2.000000e+001
-3.600000e+001, 2.000000e+001
-3.400000e+001, 3.000000e+001
-3.200000e+001, 3.000000e+001
-3.000000e+001, 4.000000e+001
-2.800000e+001, 4.000000e+001
-2.600000e+001, 5.000000e+001
-2.400000e+001, 6.000000e+001
-2.200000e+001, 8.000000e+001
-2.000000e+001, 1.000000e+002
-1.800000e+001, 1.400000e+002
-1.600000e+001, 2.500000e+002
-1.400000e+001, 5.200000e+002
-1.200000e+001, 1.120000e+003
-1.000000e+001, 2.440000e+003
-8.000000e+000, 5.910000e+003
-6.000000e+000, 1.710000e+004
-4.000000e+000, 2.309000e+005
-2.000000e+000, 5.222400e+005
0.000000e+000, 5.222400e+005
2.000000e+000, 5.222400e+005
4.000000e+000, 3.925400e+005
6.000000e+000, 1.381600e+005
8.000000e+000, 1.154500e+005
1.000000e+001, 1.118100e+005
1.200000e+001, 1.240200e+005
1.400000e+001, 1.535700e+005
1.600000e+001, 1.955400e+005
1.800000e+001, 2.330000e+005
2.000000e+001, 2.402200e+005
2.200000e+001, 2.139200e+005
2.400000e+001, 1.744500e+005
2.600000e+001, 1.416200e+005
2.800000e+001, 1.138000e+005
3.000000e+001, 9.246000e+004
3.200000e+001, 7.663000e+004
3.400000e+001, 6.598000e+004
3.600000e+001, 5.799000e+004
3.800000e+001, 5.171000e+004
4.000000e+001, 4.661000e+004
4.200000e+001, 4.227000e+004
4.400000e+001, 3.817000e+004
4.600000e+001, 3.457000e+004
4.800000e+001, 3.132000e+004
5.000000e+001, 2.880000e+004
5.200000e+001, 2.672000e+004
5.400000e+001, 2.551000e+004
5.600000e+001, 2.439000e+004
5.800000e+001, 2.313000e+004
6.000000e+001, 2.111000e+004
6.200000e+001, 1.957000e+004
6.400000e+001, 1.853000e+004
6.600000e+001, 1.765000e+004
6.800000e+001, 1.679000e+004
7.000000e+001, 1.608000e+004
7.200000e+001, 1.546000e+004
7.400000e+001, 1.495000e+004
7.600000e+001, 1.447000e+004
7.800000e+001, 1.403000e+004
8.000000e+001, 1.363000e+004
8.200000e+001, 1.327000e+004
8.400000e+001, 1.294000e+004
8.600000e+001, 1.264000e+004
8.800000e+001, 1.237000e+004
9.000000e+001, 1.212000e+004
9.200000e+001, 1.189000e+004
9.400000e+001, 1.166000e+004
9.600000e+001, 1.146000e+004
9.800000e+001, 1.126000e+004
1.000000e+002, 1.107000e+004
1.020000e+002, 1.088000e+004
1.040000e+002, 1.070000e+004
1.060000e+002, 1.052000e+004
1.080000e+002, 1.033000e+004
1.100000e+002, 1.016000e+004
1.120000e+002, 9.970000e+003
1.140000e+002, 9.800000e+003
1.160000e+002, 9.620000e+003
1.180000e+002, 9.440000e+003
1.200000e+002, 9.260000e+003
1.220000e+002, 9.090000e+003
1.240000e+002, 8.920000e+003
1.260000e+002, 8.750000e+003
1.280000e+002, 8.590000e+003
1.300000e+002, 8.430000e+003
1.320000e+002, 8.270000e+003
1.340000e+002, 8.110010e+003
1.360000e+002, 7.960000e+003
1.380000e+002, 7.820000e+003
1.400000e+002, 7.670010e+003
1.420000e+002, 7.510000e+003
1.440000e+002, 7.370000e+003
1.460000e+002, 7.230000e+003
1.480000e+002, 7.090000e+003
1.500000e+002, 6.950000e+003
1.520000e+002, 6.830000e+003
1.540000e+002, 6.700000e+003
1.560000e+002, 6.570000e+003
1.580000e+002, 6.460010e+003
1.600000e+002, 6.350000e+003
1.620000e+002, 6.250000e+003
1.640000e+002, 6.130000e+003
1.660000e+002, 6.030000e+003
1.680000e+002, 5.920000e+003
1.700000e+002, 5.820000e+003
1.720000e+002, 5.700000e+003
1.740000e+002, 5.600000e+003
1.760000e+002, 5.500000e+003
1.780000e+002, 5.400000e+003
1.800000e+002, 5.290000e+003
1.820000e+002, 5.200000e+003
1.840000e+002, 5.080000e+003
1.860000e+002, 4.990000e+003
1.880000e+002, 4.890000e+003
1.900000e+002, 4.800000e+003
1.920000e+002, 4.710000e+003
1.940000e+002, 4.620000e+003
1.960000e+002, 4.520000e+003
1.980000e+002, 4.450000e+003
2.000000e+002, 4.350000e+003
2.020000e+002, 4.270000e+003
2.040000e+002, 4.190000e+003
2.060000e+002, 4.110000e+003
2.080000e+002, 4.030000e+003
2.100000e+002, 3.950000e+003
2.120000e+002, 3.880000e+003
2.140000e+002, 3.810000e+003
2.160000e+002, 3.740000e+003
2.180000e+002, 3.660000e+003
2.200000e+002, 3.600000e+003
2.220000e+002, 3.530000e+003
2.240000e+002, 3.470000e+003
2.260000e+002, 3.410000e+003
2.280000e+002, 5.222400e+005
2.300000e+002, 5.222400e+005
2.320000e+002, 5.222400e+005
2.340000e+002, 5.222400e+005
2.360000e+002, 5.222400e+005
2.380000e+002, 5.222400e+005
2.400000e+002, 5.222400e+005
2.420000e+002, 5.222400e+005
2.440000e+002, 5.222400e+005
2.460000e+002, 5.222400e+005
2.480000e+002, 5.222400e+005
2.500000e+002, 5.222400e+005
2.520000e+002, 5.222400e+005
2.540000e+002, 5.222400e+005
2.560000e+002, 5.222400e+005
2.580000e+002, 5.222400e+005
2.600000e+002, 5.222400e+005
2.620000e+002, 5.222400e+005
2.640000e+002, 5.222400e+005
2.660000e+002, 5.222400e+005
2.680000e+002, 5.222400e+005
2.700000e+002, 5.222400e+005
2.720000e+002, 5.222400e+005
2.740000e+002, 5.222400e+005
2.760000e+002, 5.222400e+005
2.780000e+002, 5.222400e+005
2.800000e+002, 5.222400e+005
2.820000e+002, 5.222400e+005
2.840000e+002, 5.222400e+005
2.860000e+002, 5.222400e+005
2.880000e+002, 5.222400e+005
2.900000e+002, 5.222400e+005
2.920000e+002, 5.222400e+005
2.940000e+002, 5.222400e+005
2.960000e+002, 5.222400e+005
2.980000e+002, 5.222400e+005
3.000000e+002, 5.222400e+005
3.020000e+002, 5.222400e+005
3.040000e+002, 5.222400e+005
3.060000e+002, 5.222400e+005
3.080000e+002, 5.222400e+005
3.100000e+002, 5.222400e+005
3.120000e+002, 5.222400e+005
3.140000e+002, 5.222400e+005
3.160000e+002, 5.222400e+005
3.180000e+002, 5.222400e+005
3.200000e+002, 5.222400e+005
3.220000e+002, 5.222400e+005
3.240000e+002, 5.222400e+005
3.260000e+002, 5.222400e+005
3.280000e+002, 5.222400e+005
3.300000e+002, 5.222400e+005
3.320000e+002, 5.222400e+005
3.340000e+002, 5.222400e+005
3.360000e+002, 5.222400e+005
3.380000e+002, 5.222400e+005
3.400000e+002, 5.222400e+005
3.420000e+002, 5.222400e+005
3.440000e+002, 5.222400e+005
3.460000e+002, 5.222400e+005
3.480000e+002, 5.222400e+005
3.500000e+002, 5.222400e+005
3.520000e+002, 5.222400e+005
3.540000e+002, 5.222400e+005
3.560000e+002, 5.222400e+005
3.580000e+002, 5.222400e+005
3.600000e+002, 5.222400e+005
3.620000e+002, 5.222400e+005
3.640000e+002, 5.222400e+005
3.660000e+002, 5.222400e+005
3.680000e+002, 5.222400e+005
3.700000e+002, 5.222400e+005
3.720000e+002, 5.222400e+005
3.740000e+002, 5.222400e+005
3.760000e+002, 5.222400e+005
3.780000e+002, 5.222400e+005
3.800000e+002, 5.222400e+005
3.820000e+002, 5.222400e+005
3.840000e+002, 5.222400e+005
3.860000e+002, 5.222400e+005
3.880000e+002, 5.222400e+005
3.900000e+002, 5.222400e+005
3.920000e+002, 5.222400e+005
3.940000e+002, 5.222400e+005
3.960000e+002, 5.222400e+005
3.980000e+002, 5.222400e+005
4.000000e+002, 5.222400e+005
4.020000e+002, 5.222400e+005
4.040000e+002, 5.222400e+005
4.060000e+002, 5.222400e+005
4.080000e+002, 5.222400e+005
4.100000e+002, 5.222400e+005
4.120000e+002, 5.222400e+005
4.140000e+002, 5.222400e+005
4.160000e+002, 5.222400e+005
4.180000e+002, 5.222400e+005
4.200000e+002, 5.222400e+005
4.220000e+002, 5.222400e+005
4.240000e+002, 5.222400e+005
4.260000e+002, 5.222400e+005
4.280000e+002, 5.222400e+005
4.300000e+002, 5.222400e+005
4.320000e+002, 5.222400e+005
4.340000e+002, 5.222400e+005
4.360000e+002, 5.222400e+005
4.380000e+002, 5.222400e+005
4.400000e+002, 5.222400e+005
4.420000e+002, 5.222400e+005
4.440000e+002, 5.222400e+005
4.460000e+002, 5.222400e+005
4.480000e+002, 5.222400e+005
4.500000e+002, 5.222400e+005
4.520000e+002, 5.222400e+005
4.540000e+002, 5.222400e+005
4.560000e+002, 5.222400e+005
4.580000e+002, 5.222400e+005
4.600000e+002, 5.222400e+005
4.620000e+002, 5.222400e+005
4.640000e+002, 5.222400e+005
4.660000e+002, 5.222400e+005
4.680000e+002, 5.222400e+005
4.700000e+002, 5.222400e+005
4.720000e+002, 5.156800e+005
4.740000e+002, 5.079210e+005
4.760000e+002, 5.014900e+005
4.780000e+002, 4.939100e+005
4.800000e+002, 4.851100e+005
4.820000e+002, 4.795300e+005
4.840000e+002, 4.723900e+005
4.860000e+002, 4.656500e+005
4.880000e+002, 4.585500e+005
4.900000e+002, 4.512300e+005
4.920000e+002, 4.467700e+005
4.940000e+002, 4.404100e+005
4.960000e+002, 4.336000e+005
4.980000e+002, 4.266200e+005
5.000000e+002, 4.214100e+005
5.020000e+002, 4.138200e+005
5.040000e+002, 4.075200e+005
5.060000e+002, 4.019900e+005
5.080000e+002, 3.969000e+005
5.100000e+002, 3.913500e+005
5.120000e+002, 3.856300e+005
5.140000e+002, 3.798600e+005
5.160000e+002, 3.745000e+005
5.180000e+002, 3.692100e+005
5.200000e+002, 3.649700e+005
5.220000e+002, 3.601600e+005
5.240000e+002, 3.534900e+005
5.260000e+002, 3.498200e+005
5.280000e+002, 3.452000e+005
5.300000e+002, 3.395200e+005
5.320000e+002, 3.356500e+005
5.340000e+002, 3.311000e+005
5.360000e+002, 3.276600e+005
5.380000e+002, 3.214900e+005
5.400000e+002, 3.190500e+005
5.420000e+002, 3.146100e+005
5.440000e+002, 3.082300e+005
5.460000e+002, 3.057100e+005
5.480000e+002, 2.995800e+005
5.500000e+002, 2.964000e+005
5.520000e+002, 2.920200e+005
5.540000e+002, 2.881500e+005
5.560000e+002, 2.839600e+005
5.580000e+002, 2.806500e+005
5.600000e+002, 2.758500e+005
5.620000e+002, 2.734900e+005
5.640000e+002, 2.696200e+005
5.660000e+002, 2.661200e+005
5.680000e+002, 2.623000e+005
5.700000e+002, 2.589500e+005
5.720000e+002, 2.552800e+005
5.740000e+002, 2.526000e+005
5.760000e+002, 2.482800e+005
5.780000e+002, 2.456900e+005
5.800000e+002, 2.426200e+005
5.820000e+002, 2.395600e+005
5.840000e+002, 2.368600e+005
5.860000e+002, 2.323900e+005
5.880000e+002, 2.300300e+005
5.900000e+002, 2.270100e+005
5.920000e+002, 2.243500e+005
5.940000e+002, 2.208500e+005
5.960000e+002, 2.190000e+005
5.980000e+002, 2.156500e+005
6.000000e+002, 2.123400e+005
6.020000e+002, 2.100600e+005
6.040000e+002, 2.085400e+005
6.060000e+002, 2.053900e+005
6.080000e+002, 2.027800e+005
6.100000e+002, 2.005500e+005
6.120000e+002, 1.982600e+005
6.140000e+002, 1.955100e+005
6.160000e+002, 1.929500e+005
6.180000e+002, 1.905200e+005
6.200000e+002, 1.880500e+005
6.220000e+002, 1.858100e+005
6.240000e+002, 1.835000e+005
6.260000e+002, 1.818600e+005
6.280000e+002, 1.793800e+005
6.300000e+002, 1.775600e+005
6.320000e+002, 1.754400e+005
6.340000e+002, 1.730900e+005
6.360000e+002, 1.713000e+005
6.380000e+002, 1.691900e+005
6.400000e+002, 1.675400e+005
6.420000e+002, 1.652900e+005
6.440000e+002, 1.633300e+005
6.460000e+002, 1.604800e+005
6.480000e+002, 1.590700e+005
6.500000e+002, 1.568200e+005
6.520000e+002, 1.558500e+005
6.540000e+002, 1.534900e+005
6.560000e+002, 1.523300e+005
6.580000e+002, 1.499100e+005
6.600000e+002, 1.484200e+005
6.620000e+002, 1.464400e+005
6.640000e+002, 1.449400e+005
6.660000e+002, 1.433900e+005
6.680000e+002, 1.412400e+005
6.700000e+002, 1.394900e+005
6.720000e+002, 1.385000e+005
6.740000e+002, 1.361400e+005
6.760000e+002, 1.358400e+005
6.780000e+002, 1.334900e+005
6.800000e+002, 1.321100e+005
6.820000e+002, 1.311200e+005
6.840000e+002, 1.291000e+005
6.860000e+002, 1.277100e+005
6.880000e+002, 1.264700e+005
6.900000e+002, 1.251000e+005
6.920000e+002, 1.234400e+005
6.940000e+002, 1.220100e+005
6.960000e+002, 1.203200e+005
6.980000e+002, 1.197300e+005
7.000000e+002, 1.174800e+005
7.020000e+002, 1.174500e+005
7.040000e+002, 1.157800e+005
7.060000e+002, 1.143400e+005
7.080000e+002, 1.129800e+005
7.100000e+002, 1.120300e+005
7.120000e+002, 1.106900e+005
7.140000e+002, 1.094400e+005
7.160000e+002, 1.083200e+005
7.180000e+002, 1.071100e+005
7.200000e+002, 1.059100e+005
7.220000e+002, 1.050700e+005
7.240000e+002, 1.035800e+005
7.260000e+002, 1.020700e+005
7.280000e+002, 1.012000e+005
7.300000e+002, 1.000200e+005
7.320000e+002, 9.951010e+004
7.340000e+002, 9.850000e+004
7.360000e+002, 9.685000e+004
7.380000e+002, 9.648000e+004
7.400000e+002, 9.534000e+004
7.420000e+002, 9.434010e+004
7.440000e+002, 9.281010e+004
7.460000e+002, 9.240010e+004
7.480000e+002, 9.151000e+004
7.500000e+002, 9.050010e+004
7.520000e+002, 8.982010e+004
7.540000e+002, 8.868000e+004
7.560000e+002, 8.773000e+004
7.580000e+002, 8.719000e+004
7.600000e+002, 8.565000e+004
7.620000e+002, 8.464000e+004
7.640000e+002, 8.456000e+004
7.660000e+002, 8.374000e+004
7.680000e+002, 8.270000e+004
7.700000e+002, 8.225000e+004
7.720000e+002, 8.132010e+004
7.740000e+002, 8.040000e+004
7.760000e+002, 7.950000e+004
7.780000e+002, 7.931010e+004
7.800000e+002, 7.823000e+004
7.820000e+002, 7.682000e+004
7.840000e+002, 7.651000e+004
7.860000e+002, 7.562000e+004
7.880000e+002, 7.554000e+004
7.900000e+002, 7.409000e+004
7.920000e+002, 7.338000e+004
7.940000e+002, 7.270000e+004
7.960000e+002, 7.245000e+004
7.980000e+002, 7.149000e+004
8.000000e+002, 7.115000e+004
8.020000e+002, 7.011000e+004
8.040000e+002, 6.996000e+004
8.060000e+002, 6.912000e+004
8.080000e+002, 6.850010e+004
8.100000e+002, 6.776000e+004
8.120000e+002, 6.681000e+004
8.140000e+002, 6.666000e+004
8.160000e+002, 6.622000e+004
8.180000e+002, 6.506000e+004
8.200000e+002, 6.451000e+004
8.220000e+002, 6.367000e+004
8.240000e+002, 6.294000e+004
8.260000e+002, 6.294000e+004
8.280000e+002, 6.243000e+004
8.300000e+002, 6.192000e+004
8.320000e+002, 6.134000e+004
8.340000e+002, 6.077000e+004
8.360000e+002, 6.019000e+004
8.380000e+002, 5.953000e+004
8.400000e+002, 5.887000e+004
8.420000e+002, 5.872000e+004
8.440000e+002, 5.824000e+004
8.460000e+002, 5.777000e+004
8.480000e+002, 5.704000e+004
8.500000e+002, 5.638000e+004
8.520000e+002, 5.620000e+004
8.540000e+002, 5.620000e+004
8.560000e+002, 5.531000e+004
8.580000e+002, 5.438000e+004
8.600000e+002, 5.457000e+004
8.620000e+002, 5.398000e+004
8.640000e+002, 5.315000e+004
8.660000e+002, 5.337000e+004
8.680000e+002, 5.230000e+004
8.700000e+002, 5.199000e+004
8.720000e+002, 5.109000e+004
8.740000e+002, 5.124000e+004
8.760000e+002, 5.077000e+004
8.780000e+002, 5.023000e+004
8.800000e+002, 5.012000e+004
8.820000e+002, 4.930000e+004
8.840000e+002, 4.919000e+004
8.860000e+002, 4.908000e+004
8.880000e+002, 4.858000e+004
8.900000e+002, 4.813000e+004
8.920000e+002, 4.748000e+004
8.940000e+002, 4.686000e+004
8.960000e+002, 4.690000e+004
8.980000e+002, 4.646000e+004
9.000000e+002, 4.611000e+004
9.020000e+002, 4.536000e+004
9.040000e+002, 4.543000e+004
9.060000e+002, 4.498000e+004
9.080000e+002, 4.455000e+004
9.100000e+002, 4.480010e+004
9.120000e+002, 4.416000e+004
9.140000e+002, 4.354000e+004
9.160000e+002, 4.354000e+004
9.180000e+002, 4.303000e+004
9.200000e+002, 4.215000e+004
9.220000e+002, 4.242000e+004
9.240000e+002, 4.196000e+004
9.260000e+002, 4.129000e+004
9.280000e+002, 4.159000e+004
9.300000e+002, 4.129000e+004
9.320000e+002, 4.121000e+004
9.340000e+002, 4.051000e+004
9.360000e+002, 4.027000e+004
9.380000e+002, 4.001000e+004
9.400000e+002, 3.941000e+004
9.420000e+002, 3.970000e+004
9.440000e+002, 3.887000e+004
9.460000e+002, 3.868000e+004
9.480000e+002, 3.817000e+004
9.500000e+002, 3.835000e+004
9.520000e+002, 3.778000e+004
9.540000e+002, 3.750000e+004
9.560000e+002, 3.730000e+004
9.580000e+002, 3.695000e+004
9.600000e+002, 3.655000e+004
9.620000e+002, 3.637000e+004
9.640000e+002, 3.643000e+004
9.660000e+002, 3.602000e+004
9.680000e+002, 3.586000e+004
9.700000e+002, 3.540000e+004
9.720000e+002, 3.532000e+004
9.740000e+002, 3.529000e+004
9.760000e+002, 3.469000e+004
9.780000e+002, 3.469000e+004
9.800000e+002, 3.441000e+004
9.820000e+002, 3.428000e+004
9.840000e+002, 3.434000e+004
9.860000e+002, 3.383000e+004
9.880000e+002, 3.341000e+004
9.900000e+002, 3.333000e+004
9.920000e+002, 3.278000e+004
9.940000e+002, 3.301000e+004
9.960000e+002, 3.258000e+004
9.980000e+002, 3.268000e+004
1.000000e+003, 3.211000e+004
1.002000e+003, 3.184000e+004
1.004000e+003, 3.151000e+004
1.006000e+003, 3.170000e+004
1.008000e+003, 3.135000e+004
1.010000e+003, 3.084000e+004
1.012000e+003, 3.086000e+004
1.014000e+003, 3.084000e+004
1.016000e+003, 3.034000e+004
1.018000e+003, 3.019000e+004
1.020000e+003, 3.004000e+004
1.022000e+003, 2.995000e+004
1.024000e+003, 2.957000e+004
1.026000e+003, 2.938000e+004
1.028000e+003, 2.933000e+004
1.030000e+003, 2.910000e+004
1.032000e+003, 2.916000e+004
1.034000e+003, 2.868000e+004
1.036000e+003, 2.875000e+004
1.038000e+003, 2.860000e+004
1.040000e+003, 2.819000e+004
1.042000e+003, 2.793000e+004
1.044000e+003, 2.793000e+004
1.046000e+003, 2.748000e+004
1.048000e+003, 2.760000e+004
1.050000e+003, 2.743000e+004
1.052000e+003, 2.738000e+004
1.054000e+003, 2.693000e+004
1.056000e+003, 2.677000e+004
1.058000e+003, 2.664000e+004
1.060000e+003, 2.658000e+004
1.062000e+003, 2.652000e+004
1.064000e+003, 2.618000e+004
1.066000e+003, 2.608000e+004
1.068000e+003, 2.580000e+004
1.070000e+003, 2.567000e+004
1.072000e+003, 2.586000e+004
1.074000e+003, 2.534000e+004
1.076000e+003, 2.540000e+004
1.078000e+003, 2.506000e+004
1.080000e+003, 2.514000e+004
1.082000e+003, 2.501000e+004
1.084000e+003, 2.454000e+004
1.086000e+003, 2.465000e+004
1.088000e+003, 2.446000e+004
1.090000e+003, 2.447000e+004
1.092000e+003, 2.440000e+004
1.094000e+003, 2.433000e+004
1.096000e+003, 2.440000e+004
1.098000e+003, 2.371000e+004
1.100000e+003, 2.377000e+004
1.102000e+003, 2.366000e+004
1.104000e+003, 2.331000e+004
1.106000e+003, 2.340000e+004
1.108000e+003, 2.344000e+004
1.110000e+003, 2.305000e+004
1.112000e+003, 2.303000e+004
1.114000e+003, 2.259000e+004
1.116000e+003, 2.287000e+004
1.118000e+003, 2.241000e+004
1.120000e+003, 2.218000e+004
1.122000e+003, 2.230000e+004
1.124000e+003, 2.216000e+004
1.126000e+003, 2.188000e+004
1.128000e+003, 2.205000e+004
1.130000e+003, 2.200000e+004
1.132000e+003, 2.110000e+004
1.134000e+003, 2.142000e+004
1.136000e+003, 2.137000e+004
1.138000e+003, 2.127000e+004
1.140000e+003, 2.129000e+004
1.142000e+003, 2.102000e+004
1.144000e+003, 2.100000e+004
1.146000e+003, 2.093000e+004
1.148000e+003, 2.072000e+004
1.150000e+003, 2.065000e+004
1.152000e+003, 2.055000e+004
1.154000e+003, 2.051000e+004
1.156000e+003, 2.017000e+004
1.158000e+003, 2.032000e+004
1.160000e+003, 2.011000e+004
1.162000e+003, 2.014000e+004
1.164000e+003, 2.019000e+004
1.166000e+003, 1.985000e+004
1.168000e+003, 1.974000e+004
1.170000e+003, 1.979000e+004
1.172000e+003, 1.934000e+004
1.174000e+003, 1.951000e+004
1.176000e+003, 1.940000e+004
1.178000e+003, 1.910000e+004
1.180000e+003, 1.923000e+004
1.182000e+003, 1.894000e+004
1.184000e+003, 1.892000e+004
1.186000e+003, 1.894000e+004
1.188000e+003, 1.880000e+004
1.190000e+003, 1.897000e+004
1.192000e+003, 1.844000e+004
1.194000e+003, 1.851000e+004
1.196000e+003, 1.836000e+004
1.198000e+003, 1.848000e+004
1.200000e+003, 1.826000e+004
1.202000e+003, 1.803000e+004
1.204000e+003, 1.814000e+004
1.206000e+003, 1.798000e+004
1.208000e+003, 1.820000e+004
1.210000e+003, 1.786000e+004
1.212000e+003, 1.783000e+004
1.214000e+003, 1.769000e+004
1.216000e+003, 1.762000e+004
1.218000e+003, 1.755000e+004
1.220000e+003, 1.741000e+004
1.222000e+003, 1.730000e+004
1.224000e+003, 1.718000e+004
1.226000e+003, 1.724000e+004
1.228000e+003, 1.737000e+004
1.230000e+003, 1.700000e+004
1.232000e+003, 1.704000e+004
1.234000e+003, 1.696000e+004
1.236000e+003, 1.691000e+004
1.238000e+003, 1.668000e+004
1.240000e+003, 1.667000e+004
1.242000e+003, 1.654000e+004
1.244000e+003, 1.636000e+004
1.246000e+003, 1.651000e+004
1.248000e+003, 1.639000e+004
1.250000e+003, 1.631000e+004
1.252000e+003, 1.612000e+004
1.254000e+003, 1.605000e+004
1.256000e+003, 1.590000e+004
1.258000e+003, 1.594000e+004
1.260000e+003, 1.571000e+004
1.262000e+003, 1.582000e+004
1.264000e+003, 1.571000e+004
1.266000e+003, 1.567000e+004
1.268000e+003, 1.547000e+004
1.270000e+003, 1.575000e+004
1.272000e+003, 1.545000e+004
1.274000e+003, 1.537000e+004
1.276000e+003, 1.555000e+004
1.278000e+003, 1.531000e+004
1.280000e+003, 1.503000e+004
1.282000e+003, 1.507000e+004
1.284000e+003, 1.509000e+004
1.286000e+003, 1.477000e+004
1.288000e+003, 1.504000e+004
1.290000e+003, 1.488000e+004
1.292000e+003, 1.473000e+004
1.294000e+003, 1.476000e+004
1.296000e+003, 1.466000e+004
1.298000e+003, 1.446000e+004
1.300000e+003, 1.460000e+004
1.302000e+003, 1.442000e+004
1.304000e+003, 1.448000e+004
1.306000e+003, 1.433000e+004
1.308000e+003, 1.432000e+004
1.310000e+003, 1.446000e+004
1.312000e+003, 1.422000e+004
1.314000e+003, 1.422000e+004
1.316000e+003, 1.412000e+004
1.318000e+003, 1.401000e+004
1.320000e+003, 1.409000e+004
1.322000e+003, 1.415000e+004
1.324000e+003, 1.383000e+004
1.326000e+003, 1.370000e+004
1.328000e+003, 1.374000e+004
1.330000e+003, 1.382000e+004
1.332000e+003, 1.341000e+004
1.334000e+003, 1.370000e+004
1.336000e+003, 1.362000e+004
1.338000e+003, 1.363000e+004
1.340000e+003, 1.348000e+004
1.342000e+003, 1.337000e+004
1.344000e+003, 1.337000e+004
1.346000e+003, 1.327000e+004
1.348000e+003, 1.322000e+004
1.350000e+003, 1.314000e+004
1.352000e+003, 1.301000e+004
1.354000e+003, 1.287000e+004
1.356000e+003, 1.303000e+004
1.358000e+003, 1.284000e+004
1.360000e+003, 1.295000e+004
1.362000e+003, 1.276000e+004
1.364000e+003, 1.280000e+004
1.366000e+003, 1.289000e+004
1.368000e+003, 1.262000e+004
1.370000e+003, 1.294000e+004
1.372000e+003, 1.280000e+004
1.374000e+003, 1.271000e+004
1.376000e+003, 1.261000e+004
1.378000e+003, 1.264000e+004
1.380000e+003, 1.252000e+004
1.382000e+003, 1.234000e+004
1.384000e+003, 1.240000e+004
1.386000e+003, 1.220000e+004
1.388000e+003, 1.217000e+004
1.390000e+003, 1.231000e+004
1.392000e+003, 1.222000e+004
1.394000e+003, 1.236000e+004
1.396000e+003, 1.199000e+004
1.398000e+003, 1.197000e+004
1.400000e+003, 1.203000e+004
1.402000e+003, 1.189000e+004
1.404000e+003, 1.195000e+004
1.406000e+003, 1.187000e+004
1.408000e+003, 1.187000e+004
1.410000e+003, 1.171000e+004
1.412000e+003, 1.162000e+004
1.414000e+003, 1.167000e+004
1.416000e+003, 1.160000e+004
1.418000e+003, 1.167000e+004
1.420000e+003, 1.172000e+004
1.422000e+003, 1.165000e+004
1.424000e+003, 1.202000e+004
1.426000e+003, 1.225000e+004
1.428000e+003, 1.247000e+004
1.430000e+003, 1.315000e+004
1.432000e+003, 1.345000e+004
1.434000e+003, 1.436000e+004
1.436000e+003, 1.485000e+004
1.438000e+003, 1.518000e+004
1.440000e+003, 1.546000e+004
1.442000e+003, 1.554000e+004
1.444000e+003, 1.559000e+004
1.446000e+003, 1.612000e+004
1.448000e+003, 1.601000e+004
1.450000e+003, 1.567000e+004
1.452000e+003, 1.589000e+004
1.454000e+003, 1.608000e+004
1.456000e+003, 1.609000e+004
1.458000e+003, 1.608000e+004
1.460000e+003, 1.602000e+004
1.462000e+003, 1.607000e+004
1.464000e+003, 1.620000e+004
1.466000e+003, 1.639000e+004
1.468000e+003, 1.659000e+004
1.470000e+003, 1.656000e+004
1.472000e+003, 1.705000e+004
1.474000e+003, 1.710000e+004
1.476000e+003, 1.738000e+004
1.478000e+003, 1.764000e+004
1.480000e+003, 1.767000e+004
1.482000e+003, 1.773000e+004
1.484000e+003, 1.780000e+004
1.486000e+003, 1.804000e+004
1.488000e+003, 1.783000e+004
1.490000e+003, 1.777000e+004
1.492000e+003, 1.785000e+004
1.494000e+003, 1.802000e+004
1.496000e+003, 1.806000e+004
1.498000e+003, 1.794000e+004
1.500000e+003, 1.780000e+004
1.502000e+003, 1.771000e+004
1.504000e+003, 1.780000e+004
1.506000e+003, 1.775000e+004
1.508000e+003, 1.778000e+004
1.510000e+003, 1.777000e+004
1.512000e+003, 1.772000e+004
1.514000e+003, 1.760000e+004
1.516000e+003, 1.735000e+004
1.518000e+003, 1.765000e+004
1.520000e+003, 1.745000e+004
1.522000e+003, 1.742000e+004
1.524000e+003, 1.743000e+004
1.526000e+003, 1.716000e+004
1.528000e+003, 1.724000e+004
1.530000e+003, 1.726000e+004
1.532000e+003, 1.697000e+004
1.534000e+003, 1.704000e+004
1.536000e+003, 1.705000e+004
1.538000e+003, 1.692000e+004
1.540000e+003, 1.688000e+004
1.542000e+003, 1.702000e+004
1.544000e+003, 1.674000e+004
1.546000e+003, 1.660000e+004
1.548000e+003, 1.665000e+004
1.550000e+003, 1.664000e+004
1.552000e+003, 1.647000e+004
1.554000e+003, 1.634000e+004
1.556000e+003, 1.640000e+004
1.558000e+003, 1.624000e+004
1.560000e+003, 1.618000e+004
1.562000e+003, 1.634000e+004
1.564000e+003, 1.598000e+004
1.566000e+003, 1.605000e+004
1.568000e+003, 1.638000e+004
1.570000e+003, 1.603000e+004
1.572000e+003, 1.592000e+004
1.574000e+003, 1.572000e+004
1.576000e+003, 1.591000e+004
1.578000e+003, 1.608000e+004
1.580000e+003, 1.598000e+004
1.582000e+003, 1.580000e+004
1.584000e+003, 1.557000e+004
1.586000e+003, 1.569000e+004
1.588000e+003, 1.564000e+004
1.590000e+003, 1.536000e+004
1.592000e+003, 1.553000e+004
1.594000e+003, 1.525000e+004
1.596000e+003, 1.522000e+004
1.598000e+003, 1.543000e+004
1.600000e+003, 1.506000e+004
1.602000e+003, 1.516000e+004
1.604000e+003, 1.527000e+004
1.606000e+003, 1.510000e+004
1.608000e+003, 1.491000e+004
1.610000e+003, 1.486000e+004
1.612000e+003, 1.486000e+004
1.614000e+003, 1.470000e+004
1.616000e+003, 1.497000e+004
1.618000e+003, 1.471000e+004
1.620000e+003, 1.475000e+004
1.622000e+003, 1.461000e+004
1.624000e+003, 1.472000e+004
1.626000e+003, 1.435000e+004
1.628000e+003, 1.439000e+004
1.630000e+003, 1.422000e+004
1.632000e+003, 1.446000e+004
1.634000e+003, 1.435000e+004
1.636000e+003, 1.451000e+004
1.638000e+003, 1.449000e+004
1.640000e+003, 1.465000e+004
1.642000e+003, 1.468000e+004
1.644000e+003, 1.482000e+004
1.646000e+003, 1.481000e+004
1.648000e+003, 1.474000e+004
1.650000e+003, 1.456000e+004
1.652000e+003, 1.452000e+004
1.654000e+003, 1.448000e+004
1.656000e+003, 1.441000e+004
1.658000e+003, 1.470000e+004
1.660000e+003, 1.471000e+004
1.662000e+003, 1.421000e+004
1.664000e+003, 1.449000e+004
1.666000e+003, 1.449000e+004
1.668000e+003, 1.419000e+004
1.670000e+003, 1.418000e+004
1.672000e+003, 1.415000e+004
1.674000e+003, 1.419000e+004
1.676000e+003, 1.407000e+004
1.678000e+003, 1.393000e+004
1.680000e+003, 1.401000e+004
1.682000e+003, 1.396000e+004
1.684000e+003, 1.400000e+004
1.686000e+003, 1.366000e+004
1.688000e+003, 1.390000e+004
1.690000e+003, 1.387000e+004
1.692000e+003, 1.369000e+004
1.694000e+003, 1.349000e+004
1.696000e+003, 1.366000e+004
1.698000e+003, 1.368000e+004
1.700000e+003, 1.348000e+004
1.702000e+003, 1.365000e+004
1.704000e+003, 1.323000e+004
1.706000e+003, 1.336000e+004
1.708000e+003, 1.337000e+004
1.710000e+003, 1.316000e+004
1.712000e+003, 1.302000e+004
1.714000e+003, 1.327000e+004
1.716000e+003, 1.311000e+004
1.718000e+003, 1.323000e+004
1.720000e+003, 1.290000e+004
1.722000e+003, 1.280000e+004
1.724000e+003, 1.280000e+004
1.726000e+003, 1.276000e+004
1.728000e+003, 1.273000e+004
1.730000e+003, 1.278000e+004
1.732000e+003, 1.254000e+004
1.734000e+003, 1.248000e+004
1.736000e+003, 1.261000e+004
1.738000e+003, 1.266000e+004
1.740000e+003, 1.244000e+004
1.742000e+003, 1.248000e+004
1.744000e+003, 1.244000e+004
1.746000e+003, 1.225000e+004
1.748000e+003, 1.225000e+004
1.750000e+003, 1.230000e+004
1.752000e+003, 1.215000e+004
1.754000e+003, 1.203000e+004
1.756000e+003, 1.206000e+004
1.758000e+003, 1.210000e+004
1.760000e+003, 1.183000e+004
1.762000e+003, 1.216000e+004
1.764000e+003, 1.187000e+004
1.766000e+003, 1.204000e+004
1.768000e+003, 1.194000e+004
1.770000e+003, 1.187000e+004
1.772000e+003, 1.177000e+004
1.774000e+003, 1.189000e+004
1.776000e+003, 1.178000e+004
1.778000e+003, 1.166000e+004
1.780000e+003, 1.167000e+004
1.782000e+003, 1.179000e+004
1.784000e+003, 1.153000e+004
1.786000e+003, 1.150000e+004
1.788000e+003, 1.153000e+004
1.790000e+003, 1.138000e+004
1.792000e+003, 1.152000e+004
1.794000e+003, 1.145000e+004
1.796000e+003, 1.126000e+004
1.798000e+003, 1.127000e+004
1.800000e+003, 1.118000e+004
1.802000e+003, 1.122000e+004
1.804000e+003, 1.115000e+004
1.806000e+003, 1.107000e+004
1.808000e+003, 1.122000e+004
1.810000e+003, 1.101000e+004
1.812000e+003, 1.104000e+004
1.814000e+003, 1.101000e+004
1.816000e+003, 1.083000e+004
1.818000e+003, 1.077000e+004
1.820000e+003, 1.079000e+004
1.822000e+003, 1.082000e+004
1.824000e+003, 1.080000e+004
1.826000e+003, 1.063000e+004
1.828000e+003, 1.078000e+004
1.830000e+003, 1.058000e+004
1.832000e+003, 1.070000e+004
1.834000e+003, 1.067000e+004
1.836000e+003, 1.063000e+004
1.838000e+003, 1.052000e+004
1.840000e+003, 1.047000e+004
1.842000e+003, 1.046000e+004
1.844000e+003, 1.026000e+004
1.846000e+003, 1.031000e+004
1.848000e+003, 1.037000e+004
1.850000e+003, 1.034000e+004
1.852000e+003, 1.042000e+004
1.854000e+003, 1.020000e+004
1.856000e+003, 1.006000e+004
1.858000e+003, 1.000000e+001
1.860000e+003, 1.000000e+001
1.862000e+003, 1.000000e+001
1.864000e+003, 1.000000e+001
1.866000e+003, 1.000000e+001
1.868000e+003, 1.000000e+001
1.870000e+003, 1.000000e+001
1.872000e+003, 1.000000e+001
1.874000e+003, 1.000000e+001
1.876000e+003, 1.000000e+001
1.878000e+003, 1.000000e+001
1.880000e+003, 1.000000e+001
1.882000e+003, 1.000000e+001
#ENDOFDATA   : End Of Data and File