#FORMAT	     : EMSA/MAS Spectral Data File
#VERSION     : 1.0
#TITLE       : Se(0-0450eV)
#DATE        : 
#TIME        : 
#OWNER       : 
#NPOINTS     : 1024
#NCOLUMNS    : 1
#XUNITS      : eV
#YUNITS      : 
#DATATYPE    : XY
#XPERCHAN    : 5.000000e-001
#OFFSET      : -5.450000e+001
#SPECTRUM    : Spectral Data Starts Here
-5.450000e+001, 2.820000e+002
-5.400000e+001, 6.000000e+000
-5.350000e+001, 6.000000e+000
-5.300000e+001, 1.000000e+000
-5.250000e+001, 6.000000e+000
-5.200000e+001, 4.000000e+000
-5.150000e+001, 3.000000e+000
-5.100000e+001, 5.000000e+000
-5.050000e+001, 3.000000e+000
-5.000000e+001, 5.000000e+000
-4.950000e+001, 2.000000e+000
-4.900000e+001, 6.000000e+000
-4.850000e+001, 1.000000e-001
-4.800000e+001, 6.000000e+000
-4.750000e+001, 2.000000e+000
-4.700000e+001, 4.000000e+000
-4.650000e+001, 4.000000e+000
-4.600000e+001, 2.000000e+000
-4.550000e+001, 4.000000e+000
-4.500000e+001, 2.000000e+000
-4.450000e+001, 5.000000e+000
-4.400000e+001, 2.000000e+000
-4.350000e+001, 4.000000e+000
-4.300000e+001, 2.000000e+000
-4.250000e+001, 5.000000e+000
-4.200000e+001, 1.000000e+000
-4.150000e+001, 5.000000e+000
-4.100000e+001, 2.000000e+000
-4.050000e+001, 5.000000e+000
-4.000000e+001, 1.000000e+000
-3.950000e+001, 5.000000e+000
-3.900000e+001, 1.000000e+000
-3.850000e+001, 5.000000e+000
-3.800000e+001, 3.000000e+000
-3.750000e+001, 3.000000e+000
-3.700000e+001, 4.000000e+000
-3.650000e+001, 2.000000e+000
-3.600000e+001, 4.000000e+000
-3.550000e+001, 2.000000e+000
-3.500000e+001, 4.000000e+000
-3.450000e+001, 2.000000e+000
-3.400000e+001, 4.000000e+000
-3.350000e+001, 3.000000e+000
-3.300000e+001, 3.000000e+000
-3.250000e+001, 4.000000e+000
-3.200000e+001, 2.000000e+000
-3.150000e+001, 4.000000e+000
-3.100000e+001, 2.000000e+000
-3.050000e+001, 4.000000e+000
-3.000000e+001, 3.000000e+000
-2.950000e+001, 3.000000e+000
-2.900000e+001, 4.000000e+000
-2.850000e+001, 2.000000e+000
-2.800000e+001, 4.000000e+000
-2.750000e+001, 2.000000e+000
-2.700000e+001, 4.000000e+000
-2.650000e+001, 3.000000e+000
-2.600000e+001, 3.000000e+000
-2.550000e+001, 4.000000e+000
-2.500000e+001, 2.000000e+000
-2.450000e+001, 4.000000e+000
-2.400000e+001, 2.000000e+000
-2.350000e+001, 4.000000e+000
-2.300000e+001, 2.000000e+000
-2.250000e+001, 4.000000e+000
-2.200000e+001, 2.000000e+000
-2.150000e+001, 5.000000e+000
-2.100000e+001, 3.000000e+000
-2.050000e+001, 3.000000e+000
-2.000000e+001, 3.000000e+000
-1.950000e+001, 3.000000e+000
-1.900000e+001, 3.000000e+000
-1.850000e+001, 3.000000e+000
-1.800000e+001, 3.000000e+000
-1.750000e+001, 3.000000e+000
-1.700000e+001, 5.000000e+000
-1.650000e+001, 3.000000e+000
-1.600000e+001, 3.000000e+000
-1.550000e+001, 4.000000e+000
-1.500000e+001, 4.000000e+000
-1.450000e+001, 3.000000e+000
-1.400000e+001, 5.000000e+000
-1.350000e+001, 5.000000e+000
-1.300000e+001, 3.000000e+000
-1.250000e+001, 6.000000e+000
-1.200000e+001, 6.000000e+000
-1.150000e+001, 6.000000e+000
-1.100000e+001, 9.000000e+000
-1.050000e+001, 6.000000e+000
-9.999996e+000, 9.000000e+000
-9.499996e+000, 1.200000e+001
-8.999996e+000, 1.100000e+001
-8.499996e+000, 1.500000e+001
-7.999996e+000, 1.500000e+001
-7.499996e+000, 1.900000e+001
-6.999996e+000, 2.100000e+001
-6.499996e+000, 2.500000e+001
-5.999996e+000, 3.100000e+001
-5.499996e+000, 3.500000e+001
-4.999996e+000, 4.700000e+001
-4.499996e+000, 6.500000e+001
-3.999996e+000, 8.900000e+001
-3.499996e+000, 1.160000e+002
-2.999996e+000, 1.550000e+002
-2.499996e+000, 2.120000e+002
-1.999996e+000, 4.050000e+002
-1.499996e+000, 1.836000e+003
-9.999962e-001, 1.034100e+004
-4.999962e-001, 3.329000e+004
3.814697e-006, 4.356400e+004
5.000038e-001, 2.723600e+004
1.000004e+000, 8.857000e+003
1.500004e+000, 2.100000e+003
2.000004e+000, 7.850000e+002
2.500004e+000, 5.750000e+002
3.000004e+000, 5.260000e+002
3.500004e+000, 5.030000e+002
4.000004e+000, 5.000000e+002
4.500004e+000, 5.010000e+002
5.000004e+000, 5.020000e+002
5.500004e+000, 4.920000e+002
6.000004e+000, 4.770000e+002
6.500004e+000, 4.530000e+002
7.000004e+000, 4.310000e+002
7.500004e+000, 4.110000e+002
8.000004e+000, 3.990000e+002
8.500004e+000, 3.970000e+002
9.000004e+000, 4.020000e+002
9.500004e+000, 4.050000e+002
1.000000e+001, 4.150000e+002
1.050000e+001, 4.270000e+002
1.100000e+001, 4.420000e+002
1.150000e+001, 4.580000e+002
1.200000e+001, 4.790000e+002
1.250000e+001, 5.020000e+002
1.300000e+001, 5.310000e+002
1.350000e+001, 5.630000e+002
1.400000e+001, 5.990000e+002
1.450000e+001, 6.450000e+002
1.500000e+001, 6.930000e+002
1.550000e+001, 7.430000e+002
1.600000e+001, 8.000000e+002
1.650000e+001, 8.550000e+002
1.700000e+001, 9.120000e+002
1.750000e+001, 9.530000e+002
1.800000e+001, 9.790000e+002
1.850000e+001, 9.930000e+002
1.900000e+001, 9.890000e+002
1.950000e+001, 9.750010e+002
2.000000e+001, 9.440000e+002
2.050000e+001, 9.050000e+002
2.100000e+001, 8.590000e+002
2.150000e+001, 8.170000e+002
2.200000e+001, 7.700000e+002
2.250000e+001, 7.260000e+002
2.300000e+001, 6.850000e+002
2.350000e+001, 6.430000e+002
2.400000e+001, 6.080000e+002
2.450000e+001, 5.740000e+002
2.500000e+001, 5.430000e+002
2.550000e+001, 5.170000e+002
2.600000e+001, 4.890000e+002
2.650000e+001, 4.620000e+002
2.700000e+001, 4.400000e+002
2.750000e+001, 4.170000e+002
2.800000e+001, 3.940000e+002
2.850000e+001, 3.760000e+002
2.900000e+001, 3.550000e+002
2.950000e+001, 3.380000e+002
3.000000e+001, 3.220000e+002
3.050000e+001, 3.060000e+002
3.100000e+001, 2.940000e+002
3.150000e+001, 2.790000e+002
3.200000e+001, 2.690000e+002
3.250000e+001, 2.570000e+002
3.300000e+001, 2.460000e+002
3.350000e+001, 2.400000e+002
3.400000e+001, 2.290000e+002
3.450000e+001, 2.230000e+002
3.500000e+001, 2.170000e+002
3.550000e+001, 2.070000e+002
3.600000e+001, 2.020000e+002
3.650000e+001, 1.970000e+002
3.700000e+001, 1.910000e+002
3.750000e+001, 1.860000e+002
3.800000e+001, 3.557440e+005
3.850000e+001, 3.483560e+005
3.900000e+001, 3.413380e+005
3.950000e+001, 3.329470e+005
4.000000e+001, 3.239570e+005
4.050000e+001, 3.165370e+005
4.100000e+001, 3.077280e+005
4.150000e+001, 2.990920e+005
4.200000e+001, 2.904460e+005
4.250000e+001, 2.832890e+005
4.300000e+001, 2.743770e+005
4.350000e+001, 2.664060e+005
4.400000e+001, 2.583890e+005
4.450000e+001, 2.513370e+005
4.500000e+001, 2.434350e+005
4.550000e+001, 2.358340e+005
4.600000e+001, 2.282550e+005
4.650000e+001, 2.215870e+005
4.700000e+001, 2.137990e+005
4.750000e+001, 2.072880e+005
4.800000e+001, 2.009860e+005
4.850000e+001, 1.938510e+005
4.900000e+001, 1.867600e+005
4.950000e+001, 1.812470e+005
5.000000e+001, 1.746940e+005
5.050000e+001, 1.684210e+005
5.100000e+001, 1.629060e+005
5.150000e+001, 1.576760e+005
5.200000e+001, 1.529380e+005
5.250000e+001, 1.488050e+005
5.300000e+001, 1.454240e+005
5.350000e+001, 1.433780e+005
5.400000e+001, 1.437660e+005
5.450000e+001, 1.478690e+005
5.500000e+001, 1.560140e+005
5.550000e+001, 1.642440e+005
5.600000e+001, 1.679590e+005
5.650000e+001, 1.640350e+005
5.700000e+001, 1.536680e+005
5.750000e+001, 1.437990e+005
5.800000e+001, 1.314870e+005
5.850000e+001, 1.204900e+005
5.900000e+001, 1.127120e+005
5.950000e+001, 1.062490e+005
6.000000e+001, 1.023310e+005
6.050000e+001, 9.971110e+004
6.100000e+001, 9.731200e+004
6.150000e+001, 9.670200e+004
6.200000e+001, 9.571000e+004
6.250000e+001, 9.434500e+004
6.300000e+001, 9.232300e+004
6.350000e+001, 9.014500e+004
6.400000e+001, 8.736200e+004
6.450000e+001, 8.546910e+004
6.500000e+001, 8.362000e+004
6.550000e+001, 8.051400e+004
6.600000e+001, 7.818700e+004
6.650000e+001, 7.722900e+004
6.700000e+001, 7.490300e+004
6.750000e+001, 7.273000e+004
6.800000e+001, 7.188910e+004
6.850000e+001, 7.022600e+004
6.900000e+001, 6.833500e+004
6.950000e+001, 6.756100e+004
7.000000e+001, 6.687910e+004
7.050000e+001, 6.568200e+004
7.100000e+001, 6.450100e+004
7.150000e+001, 6.349910e+004
7.200000e+001, 6.261410e+004
7.250000e+001, 6.173300e+004
7.300000e+001, 6.154200e+004
7.350000e+001, 6.011400e+004
7.400000e+001, 5.910100e+004
7.450000e+001, 5.849800e+004
7.500000e+001, 5.767200e+004
7.550000e+001, 5.724800e+004
7.600000e+001, 5.638000e+004
7.650000e+001, 5.607800e+004
7.700000e+001, 5.528900e+004
7.750000e+001, 5.525400e+004
7.800000e+001, 5.441010e+004
7.850000e+001, 5.350100e+004
7.900000e+001, 5.298000e+004
7.950000e+001, 5.251610e+004
8.000000e+001, 5.233700e+004
8.050000e+001, 5.191900e+004
8.100000e+001, 5.164900e+004
8.150000e+001, 5.125200e+004
8.200000e+001, 5.124900e+004
8.250000e+001, 5.066900e+004
8.300000e+001, 4.979100e+004
8.350000e+001, 4.988400e+004
8.400000e+001, 4.954600e+004
8.450000e+001, 4.919800e+004
8.500000e+001, 4.925700e+004
8.550000e+001, 4.862600e+004
8.600000e+001, 4.818800e+004
8.650000e+001, 4.839600e+004
8.700000e+001, 4.804400e+004
8.750000e+001, 4.842300e+004
8.800000e+001, 4.801100e+004
8.850000e+001, 4.768000e+004
8.900000e+001, 4.752500e+004
8.950000e+001, 4.749000e+004
9.000000e+001, 4.749700e+004
9.050000e+001, 4.741000e+004
9.100000e+001, 4.712700e+004
9.150000e+001, 4.681100e+004
9.200000e+001, 4.709900e+004
9.250000e+001, 4.694000e+004
9.300000e+001, 4.718500e+004
9.350000e+001, 4.642800e+004
9.400000e+001, 4.635900e+004
9.450000e+001, 4.690200e+004
9.500000e+001, 4.638500e+004
9.550000e+001, 4.642000e+004
9.600000e+001, 4.639300e+004
9.650000e+001, 4.625600e+004
9.700000e+001, 4.630600e+004
9.750000e+001, 4.640700e+004
9.800000e+001, 4.616900e+004
9.850000e+001, 4.601900e+004
9.900000e+001, 4.629100e+004
9.950000e+001, 4.633400e+004
1.000000e+002, 4.605700e+004
1.005000e+002, 4.598300e+004
1.010000e+002, 4.602100e+004
1.015000e+002, 4.584800e+004
1.020000e+002, 4.643500e+004
1.025000e+002, 4.566800e+004
1.030000e+002, 4.558900e+004
1.035000e+002, 4.540800e+004
1.040000e+002, 4.567700e+004
1.045000e+002, 4.545600e+004
1.050000e+002, 4.581400e+004
1.055000e+002, 4.517200e+004
1.060000e+002, 4.508600e+004
1.065000e+002, 4.539800e+004
1.070000e+002, 4.517200e+004
1.075000e+002, 4.492100e+004
1.080000e+002, 4.501600e+004
1.085000e+002, 4.442400e+004
1.090000e+002, 4.501800e+004
1.095000e+002, 4.464900e+004
1.100000e+002, 4.454000e+004
1.105000e+002, 4.395900e+004
1.110000e+002, 4.424800e+004
1.115000e+002, 4.401700e+004
1.120000e+002, 4.397100e+004
1.125000e+002, 4.391600e+004
1.130000e+002, 4.370500e+004
1.135000e+002, 4.360900e+004
1.140000e+002, 4.330100e+004
1.145000e+002, 4.336500e+004
1.150000e+002, 4.375600e+004
1.155000e+002, 4.316000e+004
1.160000e+002, 4.316000e+004
1.165000e+002, 4.297900e+004
1.170000e+002, 4.233800e+004
1.175000e+002, 4.250600e+004
1.180000e+002, 4.143600e+004
1.185000e+002, 4.180900e+004
1.190000e+002, 4.170500e+004
1.195000e+002, 4.149700e+004
1.200000e+002, 4.152200e+004
1.205000e+002, 4.122100e+004
1.210000e+002, 4.116200e+004
1.215000e+002, 4.109900e+004
1.220000e+002, 4.108100e+004
1.225000e+002, 4.052700e+004
1.230000e+002, 4.047500e+004
1.235000e+002, 4.029600e+004
1.240000e+002, 4.012900e+004
1.245000e+002, 3.999200e+004
1.250000e+002, 3.963900e+004
1.255000e+002, 3.985400e+004
1.260000e+002, 3.968000e+004
1.265000e+002, 3.952700e+004
1.270000e+002, 3.926600e+004
1.275000e+002, 3.882300e+004
1.280000e+002, 3.891400e+004
1.285000e+002, 3.853500e+004
1.290000e+002, 3.840200e+004
1.295000e+002, 3.817900e+004
1.300000e+002, 3.840500e+004
1.305000e+002, 3.801100e+004
1.310000e+002, 3.798100e+004
1.315000e+002, 3.782800e+004
1.320000e+002, 3.753600e+004
1.325000e+002, 3.709500e+004
1.330000e+002, 3.711000e+004
1.335000e+002, 3.689300e+004
1.340000e+002, 3.707700e+004
1.345000e+002, 3.663400e+004
1.350000e+002, 3.660700e+004
1.355000e+002, 3.658300e+004
1.360000e+002, 3.612700e+004
1.365000e+002, 3.625200e+004
1.370000e+002, 3.607700e+004
1.375000e+002, 3.573500e+004
1.380000e+002, 3.578200e+004
1.385000e+002, 3.554500e+004
1.390000e+002, 3.553800e+004
1.395000e+002, 3.519800e+004
1.400000e+002, 3.514500e+004
1.405000e+002, 3.494100e+004
1.410000e+002, 3.461900e+004
1.415000e+002, 3.432400e+004
1.420000e+002, 3.445600e+004
1.425000e+002, 3.434800e+004
1.430000e+002, 3.404500e+004
1.435000e+002, 3.365700e+004
1.440000e+002, 3.387000e+004
1.445000e+002, 3.342600e+004
1.450000e+002, 3.337900e+004
1.455000e+002, 3.309100e+004
1.460000e+002, 3.276400e+004
1.465000e+002, 3.302900e+004
1.470000e+002, 3.282300e+004
1.475000e+002, 3.248600e+004
1.480000e+002, 3.218900e+004
1.485000e+002, 3.237900e+004
1.490000e+002, 3.178900e+004
1.495000e+002, 3.198600e+004
1.500000e+002, 3.165400e+004
1.505000e+002, 3.176600e+004
1.510000e+002, 3.138000e+004
1.515000e+002, 3.171600e+004
1.520000e+002, 3.148600e+004
1.525000e+002, 3.124700e+004
1.530000e+002, 3.099200e+004
1.535000e+002, 3.067400e+004
1.540000e+002, 3.063100e+004
1.545000e+002, 3.046000e+004
1.550000e+002, 3.027300e+004
1.555000e+002, 3.038600e+004
1.560000e+002, 3.006600e+004
1.565000e+002, 2.991500e+004
1.570000e+002, 2.971200e+004
1.575000e+002, 2.982000e+004
1.580000e+002, 2.959500e+004
1.585000e+002, 2.935900e+004
1.590000e+002, 2.929200e+004
1.595000e+002, 2.937700e+004
1.600000e+002, 2.919200e+004
1.605000e+002, 2.927000e+004
1.610000e+002, 2.942800e+004
1.615000e+002, 2.908500e+004
1.620000e+002, 2.889600e+004
1.625000e+002, 2.881300e+004
1.630000e+002, 2.884200e+004
1.635000e+002, 2.866800e+004
1.640000e+002, 2.865400e+004
1.645000e+002, 2.855400e+004
1.650000e+002, 2.804500e+004
1.655000e+002, 2.810700e+004
1.660000e+002, 2.786600e+004
1.665000e+002, 2.830000e+004
1.670000e+002, 2.834600e+004
1.675000e+002, 2.830300e+004
1.680000e+002, 2.766200e+004
1.685000e+002, 2.775900e+004
1.690000e+002, 2.756600e+004
1.695000e+002, 2.747100e+004
1.700000e+002, 2.746100e+004
1.705000e+002, 2.714700e+004
1.710000e+002, 2.712000e+004
1.715000e+002, 2.698400e+004
1.720000e+002, 2.696600e+004
1.725000e+002, 2.664500e+004
1.730000e+002, 2.666700e+004
1.735000e+002, 2.635600e+004
1.740000e+002, 2.623300e+004
1.745000e+002, 2.580800e+004
1.750000e+002, 2.608900e+004
1.755000e+002, 2.579900e+004
1.760000e+002, 2.583300e+004
1.765000e+002, 2.575900e+004
1.770000e+002, 2.564100e+004
1.775000e+002, 2.542900e+004
1.780000e+002, 2.531600e+004
1.785000e+002, 2.508300e+004
1.790000e+002, 2.493300e+004
1.795000e+002, 2.494100e+004
1.800000e+002, 2.476800e+004
1.805000e+002, 2.445800e+004
1.810000e+002, 2.454700e+004
1.815000e+002, 2.434000e+004
1.820000e+002, 2.413800e+004
1.825000e+002, 2.442800e+004
1.830000e+002, 2.399000e+004
1.835000e+002, 2.362600e+004
1.840000e+002, 2.393200e+004
1.845000e+002, 2.369500e+004
1.850000e+002, 2.367000e+004
1.855000e+002, 2.330000e+004
1.860000e+002, 2.339000e+004
1.865000e+002, 2.338900e+004
1.870000e+002, 2.307300e+004
1.875000e+002, 2.273700e+004
1.880000e+002, 2.270800e+004
1.885000e+002, 2.258200e+004
1.890000e+002, 2.242600e+004
1.895000e+002, 2.248800e+004
1.900000e+002, 2.207800e+004
1.905000e+002, 2.208300e+004
1.910000e+002, 2.224300e+004
1.915000e+002, 2.156800e+004
1.920000e+002, 2.196600e+004
1.925000e+002, 2.162600e+004
1.930000e+002, 2.158000e+004
1.935000e+002, 2.156600e+004
1.940000e+002, 2.131100e+004
1.945000e+002, 2.116000e+004
1.950000e+002, 2.102800e+004
1.955000e+002, 2.111400e+004
1.960000e+002, 2.074900e+004
1.965000e+002, 2.090700e+004
1.970000e+002, 2.024300e+004
1.975000e+002, 2.072000e+004
1.980000e+002, 2.052800e+004
1.985000e+002, 2.038100e+004
1.990000e+002, 2.025500e+004
1.995000e+002, 2.035100e+004
2.000000e+002, 2.015800e+004
2.005000e+002, 1.989900e+004
2.010000e+002, 1.980800e+004
2.015000e+002, 1.963200e+004
2.020000e+002, 1.967600e+004
2.025000e+002, 1.945600e+004
2.030000e+002, 1.948900e+004
2.035000e+002, 1.920700e+004
2.040000e+002, 1.896400e+004
2.045000e+002, 1.904000e+004
2.050000e+002, 1.920200e+004
2.055000e+002, 1.872800e+004
2.060000e+002, 1.879000e+004
2.065000e+002, 1.849100e+004
2.070000e+002, 1.880300e+004
2.075000e+002, 1.841400e+004
2.080000e+002, 1.833300e+004
2.085000e+002, 1.825700e+004
2.090000e+002, 1.815600e+004
2.095000e+002, 1.789000e+004
2.100000e+002, 1.796300e+004
2.105000e+002, 1.779100e+004
2.110000e+002, 1.794800e+004
2.115000e+002, 1.768100e+004
2.120000e+002, 1.757800e+004
2.125000e+002, 1.751100e+004
2.130000e+002, 1.745300e+004
2.135000e+002, 1.747300e+004
2.140000e+002, 1.728300e+004
2.145000e+002, 1.730000e+004
2.150000e+002, 1.713400e+004
2.155000e+002, 1.718700e+004
2.160000e+002, 1.716700e+004
2.165000e+002, 1.690100e+004
2.170000e+002, 1.685400e+004
2.175000e+002, 1.704900e+004
2.180000e+002, 1.669700e+004
2.185000e+002, 1.668700e+004
2.190000e+002, 1.639800e+004
2.195000e+002, 1.652000e+004
2.200000e+002, 1.628100e+004
2.205000e+002, 1.664600e+004
2.210000e+002, 1.619800e+004
2.215000e+002, 1.616000e+004
2.220000e+002, 1.624400e+004
2.225000e+002, 1.620300e+004
2.230000e+002, 1.600100e+004
2.235000e+002, 1.606500e+004
2.240000e+002, 1.569600e+004
2.245000e+002, 1.582900e+004
2.250000e+002, 1.584900e+004
2.255000e+002, 1.574300e+004
2.260000e+002, 1.556200e+004
2.265000e+002, 1.590300e+004
2.270000e+002, 1.544800e+004
2.275000e+002, 1.572300e+004
2.280000e+002, 1.553700e+004
2.285000e+002, 1.565800e+004
2.290000e+002, 1.523200e+004
2.295000e+002, 1.553800e+004
2.300000e+002, 1.550400e+004
2.305000e+002, 1.546300e+004
2.310000e+002, 1.549100e+004
2.315000e+002, 1.506400e+004
2.320000e+002, 1.517400e+004
2.325000e+002, 1.478900e+004
2.330000e+002, 1.479800e+004
2.335000e+002, 1.462500e+004
2.340000e+002, 1.462800e+004
2.345000e+002, 1.425900e+004
2.350000e+002, 1.427400e+004
2.355000e+002, 1.430100e+004
2.360000e+002, 1.439800e+004
2.365000e+002, 1.421000e+004
2.370000e+002, 1.411400e+004
2.375000e+002, 1.412600e+004
2.380000e+002, 1.381600e+004
2.385000e+002, 1.396700e+004
2.390000e+002, 1.369100e+004
2.395000e+002, 1.378000e+004
2.400000e+002, 1.384100e+004
2.405000e+002, 1.371700e+004
2.410000e+002, 1.349700e+004
2.415000e+002, 1.331600e+004
2.420000e+002, 1.351400e+004
2.425000e+002, 1.333500e+004
2.430000e+002, 1.331400e+004
2.435000e+002, 1.332600e+004
2.440000e+002, 1.299300e+004
2.445000e+002, 1.306000e+004
2.450000e+002, 1.296800e+004
2.455000e+002, 1.293700e+004
2.460000e+002, 1.289900e+004
2.465000e+002, 1.268500e+004
2.470000e+002, 1.258800e+004
2.475000e+002, 1.274400e+004
2.480000e+002, 1.245400e+004
2.485000e+002, 1.212700e+004
2.490000e+002, 1.234100e+004
2.495000e+002, 1.241700e+004
2.500000e+002, 1.239400e+004
2.505000e+002, 1.236700e+004
2.510000e+002, 1.211000e+004
2.515000e+002, 1.224700e+004
2.520000e+002, 1.217900e+004
2.525000e+002, 1.196300e+004
2.530000e+002, 1.170900e+004
2.535000e+002, 1.192600e+004
2.540000e+002, 1.179000e+004
2.545000e+002, 1.168000e+004
2.550000e+002, 1.144300e+004
2.555000e+002, 1.164800e+004
2.560000e+002, 1.151700e+004
2.565000e+002, 1.146000e+004
2.570000e+002, 1.127300e+004
2.575000e+002, 1.145300e+004
2.580000e+002, 1.137800e+004
2.585000e+002, 1.123100e+004
2.590000e+002, 1.119200e+004
2.595000e+002, 1.103600e+004
2.600000e+002, 1.102100e+004
2.605000e+002, 1.106300e+004
2.610000e+002, 1.070500e+004
2.615000e+002, 1.082100e+004
2.620000e+002, 1.086000e+004
2.625000e+002, 1.072100e+004
2.630000e+002, 1.063200e+004
2.635000e+002, 1.053600e+004
2.640000e+002, 1.049300e+004
2.645000e+002, 1.054100e+004
2.650000e+002, 1.044900e+004
2.655000e+002, 1.034100e+004
2.660000e+002, 1.033400e+004
2.665000e+002, 1.034700e+004
2.670000e+002, 1.034200e+004
2.675000e+002, 1.011700e+004
2.680000e+002, 1.010900e+004
2.685000e+002, 1.006800e+004
2.690000e+002, 9.915000e+003
2.695000e+002, 9.837000e+003
2.700000e+002, 9.849010e+003
2.705000e+002, 9.819000e+003
2.710000e+002, 9.843010e+003
2.715000e+002, 9.708010e+003
2.720000e+002, 9.640000e+003
2.725000e+002, 9.621000e+003
2.730000e+002, 9.552000e+003
2.735000e+002, 9.491000e+003
2.740000e+002, 9.376000e+003
2.745000e+002, 9.598000e+003
2.750000e+002, 9.413000e+003
2.755000e+002, 9.282010e+003
2.760000e+002, 9.225000e+003
2.765000e+002, 9.186000e+003
2.770000e+002, 9.213000e+003
2.775000e+002, 9.230000e+003
2.780000e+002, 9.016000e+003
2.785000e+002, 9.092000e+003
2.790000e+002, 9.082000e+003
2.795000e+002, 8.946000e+003
2.800000e+002, 8.868000e+003
2.805000e+002, 8.916000e+003
2.810000e+002, 9.059000e+003
2.815000e+002, 8.977000e+003
2.820000e+002, 9.110010e+003
2.825000e+002, 8.987000e+003
2.830000e+002, 8.968000e+003
2.835000e+002, 9.244000e+003
2.840000e+002, 9.478000e+003
2.845000e+002, 9.467000e+003
2.850000e+002, 9.395000e+003
2.855000e+002, 9.423000e+003
2.860000e+002, 9.277010e+003
2.865000e+002, 9.585000e+003
2.870000e+002, 9.346000e+003
2.875000e+002, 9.521000e+003
2.880000e+002, 9.335000e+003
2.885000e+002, 9.485000e+003
2.890000e+002, 9.396010e+003
2.895000e+002, 9.825000e+003
2.900000e+002, 9.763000e+003
2.905000e+002, 9.741000e+003
2.910000e+002, 9.657000e+003
2.915000e+002, 9.704000e+003
2.920000e+002, 9.818000e+003
2.925000e+002, 1.004500e+004
2.930000e+002, 9.894000e+003
2.935000e+002, 9.854000e+003
2.940000e+002, 9.925000e+003
2.945000e+002, 9.905000e+003
2.950000e+002, 9.839000e+003
2.955000e+002, 9.952010e+003
2.960000e+002, 9.849010e+003
2.965000e+002, 9.840000e+003
2.970000e+002, 9.832000e+003
2.975000e+002, 9.758000e+003
2.980000e+002, 9.648000e+003
2.985000e+002, 9.696000e+003
2.990000e+002, 9.505000e+003
2.995000e+002, 9.587000e+003
3.000000e+002, 9.449010e+003
3.005000e+002, 9.417000e+003
3.010000e+002, 9.298000e+003
3.015000e+002, 9.191000e+003
3.020000e+002, 9.302000e+003
3.025000e+002, 9.029000e+003
3.030000e+002, 9.170000e+003
3.035000e+002, 9.057000e+003
3.040000e+002, 9.003000e+003
3.045000e+002, 8.887010e+003
3.050000e+002, 8.732000e+003
3.055000e+002, 8.831000e+003
3.060000e+002, 8.546010e+003
3.065000e+002, 8.501010e+003
3.070000e+002, 8.497000e+003
3.075000e+002, 8.503000e+003
3.080000e+002, 8.498000e+003
3.085000e+002, 8.360000e+003
3.090000e+002, 8.417000e+003
3.095000e+002, 8.149000e+003
3.100000e+002, 8.365000e+003
3.105000e+002, 8.253010e+003
3.110000e+002, 8.010000e+003
3.115000e+002, 8.185000e+003
3.120000e+002, 8.088000e+003
3.125000e+002, 8.049000e+003
3.130000e+002, 7.897000e+003
3.135000e+002, 7.945000e+003
3.140000e+002, 7.785000e+003
3.145000e+002, 7.745000e+003
3.150000e+002, 7.831000e+003
3.155000e+002, 7.774000e+003
3.160000e+002, 7.751000e+003
3.165000e+002, 7.803000e+003
3.170000e+002, 7.626000e+003
3.175000e+002, 7.464000e+003
3.180000e+002, 7.575000e+003
3.185000e+002, 7.532000e+003
3.190000e+002, 7.588000e+003
3.195000e+002, 7.403000e+003
3.200000e+002, 7.431000e+003
3.205000e+002, 7.388000e+003
3.210000e+002, 7.391000e+003
3.215000e+002, 7.279000e+003
3.220000e+002, 7.289000e+003
3.225000e+002, 7.304000e+003
3.230000e+002, 6.998000e+003
3.235000e+002, 7.110000e+003
3.240000e+002, 7.116000e+003
3.245000e+002, 6.948000e+003
3.250000e+002, 6.945000e+003
3.255000e+002, 6.917000e+003
3.260000e+002, 6.931000e+003
3.265000e+002, 6.844000e+003
3.270000e+002, 6.780000e+003
3.275000e+002, 6.740000e+003
3.280000e+002, 6.765000e+003
3.285000e+002, 6.751000e+003
3.290000e+002, 6.647000e+003
3.295000e+002, 6.565000e+003
3.300000e+002, 6.603000e+003
3.305000e+002, 6.779000e+003
3.310000e+002, 6.528000e+003
3.315000e+002, 6.570000e+003
3.320000e+002, 6.270000e+003
3.325000e+002, 6.471000e+003
3.330000e+002, 6.380000e+003
3.335000e+002, 6.394000e+003
3.340000e+002, 6.177000e+003
3.345000e+002, 6.131000e+003
3.350000e+002, 6.158000e+003
3.355000e+002, 6.137000e+003
3.360000e+002, 6.346000e+003
3.365000e+002, 6.095000e+003
3.370000e+002, 6.040000e+003
3.375000e+002, 6.129000e+003
3.380000e+002, 5.956000e+003
3.385000e+002, 5.965000e+003
3.390000e+002, 5.966010e+003
3.395000e+002, 5.900000e+003
3.400000e+002, 5.919000e+003
3.405000e+002, 5.947000e+003
3.410000e+002, 5.987000e+003
3.415000e+002, 5.844000e+003
3.420000e+002, 5.926000e+003
3.425000e+002, 5.870000e+003
3.430000e+002, 5.747000e+003
3.435000e+002, 5.757000e+003
3.440000e+002, 5.669000e+003
3.445000e+002, 5.572000e+003
3.450000e+002, 5.749000e+003
3.455000e+002, 5.643000e+003
3.460000e+002, 5.559000e+003
3.465000e+002, 5.590000e+003
3.470000e+002, 5.485000e+003
3.475000e+002, 5.543000e+003
3.480000e+002, 5.501000e+003
3.485000e+002, 5.464000e+003
3.490000e+002, 5.335000e+003
3.495000e+002, 5.446000e+003
3.500000e+002, 5.307000e+003
3.505000e+002, 5.410000e+003
3.510000e+002, 5.288000e+003
3.515000e+002, 5.332000e+003
3.520000e+002, 5.415000e+003
3.525000e+002, 5.314000e+003
3.530000e+002, 5.248000e+003
3.535000e+002, 5.261000e+003
3.540000e+002, 5.174000e+003
3.545000e+002, 5.211000e+003
3.550000e+002, 5.136000e+003
3.555000e+002, 5.138000e+003
3.560000e+002, 5.015000e+003
3.565000e+002, 4.909000e+003
3.570000e+002, 5.021000e+003
3.575000e+002, 4.907000e+003
3.580000e+002, 4.919000e+003
3.585000e+002, 5.037000e+003
3.590000e+002, 4.931000e+003
3.595000e+002, 4.843000e+003
3.600000e+002, 4.987000e+003
3.605000e+002, 4.967000e+003
3.610000e+002, 4.843000e+003
3.615000e+002, 4.836000e+003
3.620000e+002, 4.819000e+003
3.625000e+002, 4.861000e+003
3.630000e+002, 4.746000e+003
3.635000e+002, 4.841000e+003
3.640000e+002, 4.674000e+003
3.645000e+002, 4.676000e+003
3.650000e+002, 4.608000e+003
3.655000e+002, 4.696000e+003
3.660000e+002, 4.611000e+003
3.665000e+002, 4.762000e+003
3.670000e+002, 4.597000e+003
3.675000e+002, 4.581000e+003
3.680000e+002, 4.592000e+003
3.685000e+002, 4.656000e+003
3.690000e+002, 4.437000e+003
3.695000e+002, 4.557000e+003
3.700000e+002, 4.534000e+003
3.705000e+002, 4.349000e+003
3.710000e+002, 4.447000e+003
3.715000e+002, 4.426000e+003
3.720000e+002, 4.472000e+003
3.725000e+002, 4.470000e+003
3.730000e+002, 4.346000e+003
3.735000e+002, 4.386000e+003
3.740000e+002, 4.185000e+003
3.745000e+002, 4.292000e+003
3.750000e+002, 4.302000e+003
3.755000e+002, 4.225000e+003
3.760000e+002, 4.264000e+003
3.765000e+002, 4.238000e+003
3.770000e+002, 4.218000e+003
3.775000e+002, 4.136000e+003
3.780000e+002, 4.205000e+003
3.785000e+002, 4.117000e+003
3.790000e+002, 4.024000e+003
3.795000e+002, 4.149000e+003
3.800000e+002, 4.097000e+003
3.805000e+002, 4.142000e+003
3.810000e+002, 4.020000e+003
3.815000e+002, 4.136000e+003
3.820000e+002, 4.054000e+003
3.825000e+002, 3.933000e+003
3.830000e+002, 4.094000e+003
3.835000e+002, 4.108000e+003
3.840000e+002, 3.970000e+003
3.845000e+002, 4.109000e+003
3.850000e+002, 4.006000e+003
3.855000e+002, 3.896000e+003
3.860000e+002, 3.766000e+003
3.865000e+002, 3.734000e+003
3.870000e+002, 3.826000e+003
3.875000e+002, 3.867000e+003
3.880000e+002, 3.786000e+003
3.885000e+002, 3.868000e+003
3.890000e+002, 3.929000e+003
3.895000e+002, 3.724000e+003
3.900000e+002, 3.720000e+003
3.905000e+002, 3.744000e+003
3.910000e+002, 3.656000e+003
3.915000e+002, 3.719000e+003
3.920000e+002, 3.594000e+003
3.925000e+002, 3.701000e+003
3.930000e+002, 3.690000e+003
3.935000e+002, 3.578000e+003
3.940000e+002, 3.732000e+003
3.945000e+002, 3.510000e+003
3.950000e+002, 3.651000e+003
3.955000e+002, 3.525000e+003
3.960000e+002, 3.561000e+003
3.965000e+002, 3.563000e+003
3.970000e+002, 3.525000e+003
3.975000e+002, 3.589000e+003
3.980000e+002, 3.485000e+003
3.985000e+002, 3.414000e+003
3.990000e+002, 3.515000e+003
3.995000e+002, 3.520000e+003
4.000000e+002, 3.456000e+003
4.005000e+002, 3.524000e+003
4.010000e+002, 3.395000e+003
4.015000e+002, 3.402000e+003
4.020000e+002, 3.407000e+003
4.025000e+002, 3.468000e+003
4.030000e+002, 3.324000e+003
4.035000e+002, 3.395000e+003
4.040000e+002, 3.272000e+003
4.045000e+002, 3.404000e+003
4.050000e+002, 3.323000e+003
4.055000e+002, 3.297000e+003
4.060000e+002, 3.344000e+003
4.065000e+002, 3.296000e+003
4.070000e+002, 3.336000e+003
4.075000e+002, 3.159000e+003
4.080000e+002, 3.237000e+003
4.085000e+002, 3.295000e+003
4.090000e+002, 3.167000e+003
4.095000e+002, 3.155000e+003
4.100000e+002, 3.165000e+003
4.105000e+002, 3.196000e+003
4.110000e+002, 3.206000e+003
4.115000e+002, 3.187000e+003
4.120000e+002, 3.142000e+003
4.125000e+002, 3.069000e+003
4.130000e+002, 3.214000e+003
4.135000e+002, 3.091000e+003
4.140000e+002, 3.026000e+003
4.145000e+002, 2.945000e+003
4.150000e+002, 3.034000e+003
4.155000e+002, 2.925000e+003
4.160000e+002, 3.079000e+003
4.165000e+002, 3.007000e+003
4.170000e+002, 2.941000e+003
4.175000e+002, 2.964000e+003
4.180000e+002, 2.949000e+003
4.185000e+002, 2.879000e+003
4.190000e+002, 2.993000e+003
4.195000e+002, 2.953000e+003
4.200000e+002, 2.894000e+003
4.205000e+002, 2.791000e+003
4.210000e+002, 2.928000e+003
4.215000e+002, 2.757000e+003
4.220000e+002, 2.822000e+003
4.225000e+002, 2.858000e+003
4.230000e+002, 2.881000e+003
4.235000e+002, 2.798000e+003
4.240000e+002, 2.788000e+003
4.245000e+002, 2.819000e+003
4.250000e+002, 2.717000e+003
4.255000e+002, 2.859000e+003
4.260000e+002, 2.769000e+003
4.265000e+002, 2.800000e+003
4.270000e+002, 2.814000e+003
4.275000e+002, 2.687000e+003
4.280000e+002, 2.621000e+003
4.285000e+002, 2.714000e+003
4.290000e+002, 2.631000e+003
4.295000e+002, 2.691000e+003
4.300000e+002, 2.707000e+003
4.305000e+002, 2.687000e+003
4.310000e+002, 2.605000e+003
4.315000e+002, 2.657000e+003
4.320000e+002, 2.595000e+003
4.325000e+002, 2.629000e+003
4.330000e+002, 2.701000e+003
4.335000e+002, 2.563000e+003
4.340000e+002, 2.653000e+003
4.345000e+002, 2.558000e+003
4.350000e+002, 2.560000e+003
4.355000e+002, 2.526000e+003
4.360000e+002, 2.461000e+003
4.365000e+002, 2.440000e+003
4.370000e+002, 2.532000e+003
4.375000e+002, 2.490000e+003
4.380000e+002, 2.543000e+003
4.385000e+002, 2.549000e+003
4.390000e+002, 2.471000e+003
4.395000e+002, 2.403000e+003
4.400000e+002, 2.506000e+003
4.405000e+002, 2.435000e+003
4.410000e+002, 2.422000e+003
4.415000e+002, 2.401000e+003
4.420000e+002, 2.349000e+003
4.425000e+002, 2.422000e+003
4.430000e+002, 2.318000e+003
4.435000e+002, 2.371000e+003
4.440000e+002, 2.350000e+003
4.445000e+002, 2.334000e+003
4.450000e+002, 2.390000e+003
4.455000e+002, 1.000000e-001
4.460000e+002, 1.000000e-001
4.465000e+002, 1.000000e-001
4.470000e+002, 1.000000e-001
4.475000e+002, 1.000000e-001
4.480000e+002, 1.000000e-001
4.485000e+002, 1.000000e-001
4.490000e+002, 1.000000e-001
4.495000e+002, 1.000000e-001
4.500000e+002, 1.000000e-001
4.505000e+002, 1.000000e-001
4.510000e+002, 1.000000e-001
4.515000e+002, 1.000000e-001
4.520000e+002, 1.000000e-001
4.525000e+002, 1.000000e-001
4.530000e+002, 1.000000e-001
4.535000e+002, 1.000000e-001
4.540000e+002, 1.000000e-001
4.545000e+002, 1.000000e-001
4.550000e+002, 1.000000e-001
4.555000e+002, 1.000000e-001
4.560000e+002, 1.000000e-001
4.565000e+002, 1.000000e-001
4.570000e+002, 1.000000e-001
#ENDOFDATA   : End Of Data and File