Angstroms, e1, e2, n, k, Absorption 
2450, -3.177809e+00, 5.963001e+00, 1.337741e+00, 2.228758e+00, 5.066594e-02 
2460, -3.209932e+00, 6.072640e+00, 1.352569e+00, 2.244855e+00, 5.136890e-02 
2470, -3.241262e+00, 6.185569e+00, 1.367859e+00, 2.261040e+00, 5.209262e-02 
2480, -3.271657e+00, 6.301931e+00, 1.383639e+00, 2.277304e+00, 5.283798e-02 
2490, -3.300955e+00, 6.421873e+00, 1.399933e+00, 2.293636e+00, 5.360584e-02 
2500, -3.328978e+00, 6.545545e+00, 1.416770e+00, 2.310025e+00, 5.439708e-02 
2510, -3.355525e+00, 6.673097e+00, 1.434177e+00, 2.326454e+00, 5.521256e-02 
2520, -3.380373e+00, 6.804677e+00, 1.452186e+00, 2.342908e+00, 5.605311e-02 
2530, -3.403275e+00, 6.940432e+00, 1.470826e+00, 2.359365e+00, 5.691953e-02 
2540, -3.423958e+00, 7.080505e+00, 1.490129e+00, 2.375803e+00, 5.781255e-02 
2550, -3.442120e+00, 7.225029e+00, 1.510125e+00, 2.392195e+00, 5.873284e-02 
2560, -3.457427e+00, 7.374131e+00, 1.530849e+00, 2.408511e+00, 5.968096e-02 
2570, -3.469517e+00, 7.527923e+00, 1.552331e+00, 2.424716e+00, 6.065738e-02 
2580, -3.477992e+00, 7.686497e+00, 1.574604e+00, 2.440772e+00, 6.166240e-02 
2590, -3.482419e+00, 7.849926e+00, 1.597698e+00, 2.456636e+00, 6.269612e-02 
2600, -3.482329e+00, 8.018256e+00, 1.621646e+00, 2.472259e+00, 6.375846e-02 
2610, -3.477219e+00, 8.191497e+00, 1.646474e+00, 2.487588e+00, 6.484907e-02 
2620, -3.466546e+00, 8.369622e+00, 1.672209e+00, 2.502565e+00, 6.596729e-02 
2630, -3.449737e+00, 8.552557e+00, 1.698875e+00, 2.517124e+00, 6.711214e-02 
2640, -3.426184e+00, 8.740173e+00, 1.726491e+00, 2.531196e+00, 6.828221e-02 
2650, -3.395247e+00, 8.932278e+00, 1.755072e+00, 2.544705e+00, 6.947569e-02 
2660, -3.356267e+00, 9.128611e+00, 1.784627e+00, 2.557569e+00, 7.069022e-02 
2670, -3.308562e+00, 9.328828e+00, 1.815158e+00, 2.569701e+00, 7.192294e-02 
2680, -3.251443e+00, 9.532501e+00, 1.846662e+00, 2.581008e+00, 7.317037e-02 
2690, -3.184221e+00, 9.739102e+00, 1.879124e+00, 2.591395e+00, 7.442840e-02 
2700, -3.106222e+00, 9.948005e+00, 1.912519e+00, 2.600760e+00, 7.569225e-02 
2710, -3.016797e+00, 1.015847e+01, 1.946813e+00, 2.609000e+00, 7.695643e-02 
2720, -2.915345e+00, 1.036965e+01, 1.981959e+00, 2.616010e+00, 7.821477e-02 
2730, -2.801329e+00, 1.058058e+01, 2.017896e+00, 2.621685e+00, 7.946041e-02 
2740, -2.674293e+00, 1.079019e+01, 2.054551e+00, 2.625923e+00, 8.068582e-02 
2750, -2.533892e+00, 1.099729e+01, 2.091835e+00, 2.628624e+00, 8.188287e-02 
2760, -2.379904e+00, 1.120063e+01, 2.129645e+00, 2.629694e+00, 8.304294e-02 
2770, -2.212259e+00, 1.139885e+01, 2.167865e+00, 2.629049e+00, 8.415700e-02 
2780, -2.031054e+00, 1.159053e+01, 2.206364e+00, 2.626613e+00, 8.521580e-02 
2790, -1.836571e+00, 1.177424e+01, 2.244999e+00, 2.622325e+00, 8.620999e-02 
2800, -1.629287e+00, 1.194852e+01, 2.283616e+00, 2.616140e+00, 8.713037e-02 
2810, -1.409885e+00, 1.211195e+01, 2.322052e+00, 2.608028e+00, 8.796807e-02 
2820, -1.179252e+00, 1.226318e+01, 2.360137e+00, 2.597980e+00, 8.871480e-02 
2830, -9.384716e-01, 1.240094e+01, 2.397700e+00, 2.586007e+00, 8.936307e-02 
2840, -6.888129e-01, 1.252410e+01, 2.434565e+00, 2.572143e+00, 8.990640e-02 
2850, -4.317064e-01, 1.263171e+01, 2.470564e+00, 2.556442e+00, 9.033952e-02 
2860, -1.687171e-01, 1.272298e+01, 2.505532e+00, 2.538978e+00, 9.065851e-02 
2870, 9.848944e-02, 1.279738e+01, 2.539316e+00, 2.519848e+00, 9.086095e-02 
2880, 3.681853e-01, 1.285458e+01, 2.571774e+00, 2.499167e+00, 9.094599e-02 
2890, 6.386207e-01, 1.289450e+01, 2.602780e+00, 2.477063e+00, 9.091433e-02 
2900, 9.080648e-01, 1.291730e+01, 2.632228e+00, 2.453683e+00, 9.076821e-02 
2910, 1.174845e+00, 1.292336e+01, 2.660028e+00, 2.429178e+00, 9.051132e-02 
2920, 1.437382e+00, 1.291328e+01, 2.686114e+00, 2.403711e+00, 9.014866e-02 
2930, 1.694223e+00, 1.288784e+01, 2.710438e+00, 2.377446e+00, 8.968638e-02 
2940, 1.944063e+00, 1.284797e+01, 2.732973e+00, 2.350549e+00, 8.913158e-02 
2950, 2.185767e+00, 1.279476e+01, 2.753715e+00, 2.323183e+00, 8.849212e-02 
2960, 2.418378e+00, 1.272937e+01, 2.772674e+00, 2.295505e+00, 8.777633e-02 
2970, 2.641123e+00, 1.265303e+01, 2.789880e+00, 2.267665e+00, 8.699288e-02 
2980, 2.853411e+00, 1.256699e+01, 2.805376e+00, 2.239805e+00, 8.615053e-02 
2990, 3.054826e+00, 1.247253e+01, 2.819221e+00, 2.212053e+00, 8.525800e-02 
3000, 3.245118e+00, 1.237089e+01, 2.831480e+00, 2.184527e+00, 8.432375e-02 
3010, 3.424184e+00, 1.226328e+01, 2.842230e+00, 2.157333e+00, 8.335588e-02 
3020, 3.592058e+00, 1.215083e+01, 2.851553e+00, 2.130563e+00, 8.236204e-02 
3030, 3.748887e+00, 1.203462e+01, 2.859536e+00, 2.104296e+00, 8.134933e-02 
3040, 3.894919e+00, 1.191564e+01, 2.866268e+00, 2.078599e+00, 8.032429e-02 
3050, 4.030480e+00, 1.179480e+01, 2.871838e+00, 2.053528e+00, 7.929280e-02 
3060, 4.155962e+00, 1.167291e+01, 2.876338e+00, 2.029127e+00, 7.826017e-02 
3070, 4.271804e+00, 1.155069e+01, 2.879853e+00, 2.005431e+00, 7.723103e-02 
3080, 4.378480e+00, 1.142879e+01, 2.882472e+00, 1.982464e+00, 7.620946e-02 
3090, 4.476487e+00, 1.130776e+01, 2.884275e+00, 1.960244e+00, 7.519896e-02 
3100, 4.566334e+00, 1.118808e+01, 2.885342e+00, 1.938779e+00, 7.420247e-02 
3110, 4.648531e+00, 1.107015e+01, 2.885748e+00, 1.918074e+00, 7.322248e-02 
3120, 4.723587e+00, 1.095431e+01, 2.885561e+00, 1.898125e+00, 7.226100e-02 
3130, 4.791998e+00, 1.084083e+01, 2.884849e+00, 1.878925e+00, 7.131964e-02 
3140, 4.854245e+00, 1.072993e+01, 2.883672e+00, 1.860462e+00, 7.039965e-02 
3150, 4.910793e+00, 1.062178e+01, 2.882087e+00, 1.842724e+00, 6.950197e-02 
3160, 4.962083e+00, 1.051651e+01, 2.880145e+00, 1.825692e+00, 6.862725e-02 
3170, 5.008536e+00, 1.041421e+01, 2.877893e+00, 1.809346e+00, 6.777589e-02 
3180, 5.050548e+00, 1.031494e+01, 2.875377e+00, 1.793668e+00, 6.694809e-02 
3190, 5.088491e+00, 1.021873e+01, 2.872634e+00, 1.778634e+00, 6.614388e-02 
3200, 5.122713e+00, 1.012558e+01, 2.869702e+00, 1.764221e+00, 6.536311e-02 
3210, 5.153537e+00, 1.003548e+01, 2.866612e+00, 1.750407e+00, 6.460555e-02 
3220, 5.181265e+00, 9.948391e+00, 2.863393e+00, 1.737168e+00, 6.387082e-02 
3230, 5.206176e+00, 9.864279e+00, 2.860072e+00, 1.724481e+00, 6.315849e-02 
3240, 5.228526e+00, 9.783084e+00, 2.856672e+00, 1.712322e+00, 6.246804e-02 
3250, 5.248554e+00, 9.704740e+00, 2.853213e+00, 1.700668e+00, 6.179893e-02 
3260, 5.266477e+00, 9.629175e+00, 2.849716e+00, 1.689498e+00, 6.115054e-02 
3270, 5.282494e+00, 9.556312e+00, 2.846194e+00, 1.678788e+00, 6.052226e-02 
3280, 5.296790e+00, 9.486070e+00, 2.842664e+00, 1.668517e+00, 5.991344e-02 
3290, 5.309532e+00, 9.418365e+00, 2.839138e+00, 1.658666e+00, 5.932343e-02 
3300, 5.320874e+00, 9.353111e+00, 2.835627e+00, 1.649214e+00, 5.875156e-02 
3310, 5.330953e+00, 9.290223e+00, 2.832140e+00, 1.640142e+00, 5.819718e-02 
3320, 5.339899e+00, 9.229615e+00, 2.828686e+00, 1.631431e+00, 5.765965e-02 
3330, 5.347827e+00, 9.171200e+00, 2.825273e+00, 1.623065e+00, 5.713830e-02 
3340, 5.354841e+00, 9.114895e+00, 2.821905e+00, 1.615025e+00, 5.663253e-02 
3350, 5.361038e+00, 9.060618e+00, 2.818589e+00, 1.607297e+00, 5.614171e-02 
3360, 5.366504e+00, 9.008287e+00, 2.815328e+00, 1.599865e+00, 5.566524e-02 
3370, 5.371318e+00, 8.957824e+00, 2.812126e+00, 1.592714e+00, 5.520255e-02 
3380, 5.375550e+00, 8.909151e+00, 2.808987e+00, 1.585830e+00, 5.475307e-02 
3390, 5.379266e+00, 8.862196e+00, 2.805912e+00, 1.579201e+00, 5.431626e-02 
3400, 5.382523e+00, 8.816886e+00, 2.802903e+00, 1.572813e+00, 5.389160e-02 
3410, 5.385374e+00, 8.773152e+00, 2.799962e+00, 1.566656e+00, 5.347859e-02 
3420, 5.387867e+00, 8.730927e+00, 2.797089e+00, 1.560717e+00, 5.307674e-02 
3430, 5.390043e+00, 8.690149e+00, 2.794284e+00, 1.554986e+00, 5.268560e-02 
3440, 5.391941e+00, 8.650755e+00, 2.791549e+00, 1.549454e+00, 5.230472e-02 
3450, 5.393596e+00, 8.612686e+00, 2.788884e+00, 1.544110e+00, 5.193369e-02 
3460, 5.395039e+00, 8.575887e+00, 2.786287e+00, 1.538946e+00, 5.157208e-02 
3470, 5.396297e+00, 8.540304e+00, 2.783758e+00, 1.533952e+00, 5.121952e-02 
3480, 5.397396e+00, 8.505885e+00, 2.781297e+00, 1.529122e+00, 5.087564e-02 
3490, 5.398358e+00, 8.472580e+00, 2.778902e+00, 1.524447e+00, 5.054009e-02 
3500, 5.399202e+00, 8.440344e+00, 2.776574e+00, 1.519921e+00, 5.021253e-02 
3510, 5.399947e+00, 8.409131e+00, 2.774310e+00, 1.515536e+00, 4.989264e-02 
3520, 5.400607e+00, 8.378898e+00, 2.772110e+00, 1.511286e+00, 4.958012e-02 
3530, 5.401198e+00, 8.349605e+00, 2.769972e+00, 1.507164e+00, 4.927467e-02 
3540, 5.401732e+00, 8.321213e+00, 2.767895e+00, 1.503166e+00, 4.897602e-02 
3550, 5.402218e+00, 8.293685e+00, 2.765877e+00, 1.499286e+00, 4.868391e-02 
3560, 5.402668e+00, 8.266986e+00, 2.763919e+00, 1.495519e+00, 4.839809e-02 
3570, 5.403090e+00, 8.241083e+00, 2.762017e+00, 1.491860e+00, 4.811831e-02 
3580, 5.403491e+00, 8.215943e+00, 2.760170e+00, 1.488304e+00, 4.784435e-02 
3590, 5.403877e+00, 8.191536e+00, 2.758378e+00, 1.484847e+00, 4.757599e-02 
3600, 5.404255e+00, 8.167833e+00, 2.756638e+00, 1.481485e+00, 4.731303e-02 
3610, 5.404628e+00, 8.144807e+00, 2.754949e+00, 1.478214e+00, 4.705527e-02 
3620, 5.405002e+00, 8.122431e+00, 2.753310e+00, 1.475030e+00, 4.680252e-02 
3630, 5.405379e+00, 8.100681e+00, 2.751719e+00, 1.471931e+00, 4.655461e-02 
3640, 5.405763e+00, 8.079533e+00, 2.750176e+00, 1.468912e+00, 4.631137e-02 
3650, 5.406155e+00, 8.058965e+00, 2.748677e+00, 1.465971e+00, 4.607264e-02 
3660, 5.406559e+00, 8.038954e+00, 2.747223e+00, 1.463105e+00, 4.583825e-02 
3670, 5.406976e+00, 8.019480e+00, 2.745812e+00, 1.460311e+00, 4.560808e-02 
3680, 5.407406e+00, 8.000525e+00, 2.744443e+00, 1.457587e+00, 4.538197e-02 
3690, 5.407851e+00, 7.982069e+00, 2.743113e+00, 1.454929e+00, 4.515979e-02 
3700, 5.408312e+00, 7.964095e+00, 2.741823e+00, 1.452336e+00, 4.494142e-02 
3710, 5.408789e+00, 7.946586e+00, 2.740570e+00, 1.449805e+00, 4.472673e-02 
3720, 5.409282e+00, 7.929526e+00, 2.739354e+00, 1.447335e+00, 4.451562e-02 
3730, 5.409791e+00, 7.912900e+00, 2.738174e+00, 1.444923e+00, 4.430796e-02 
3740, 5.410317e+00, 7.896693e+00, 2.737027e+00, 1.442568e+00, 4.410366e-02 
3750, 5.410858e+00, 7.880892e+00, 2.735914e+00, 1.440267e+00, 4.390262e-02 
3760, 5.411414e+00, 7.865483e+00, 2.734833e+00, 1.438019e+00, 4.370473e-02 
3770, 5.411986e+00, 7.850453e+00, 2.733783e+00, 1.435822e+00, 4.350991e-02 
3780, 5.412572e+00, 7.835791e+00, 2.732764e+00, 1.433675e+00, 4.331807e-02 
3790, 5.413171e+00, 7.821486e+00, 2.731773e+00, 1.431577e+00, 4.312913e-02 
3800, 5.413783e+00, 7.807526e+00, 2.730811e+00, 1.429525e+00, 4.294300e-02 
3810, 5.414408e+00, 7.793900e+00, 2.729875e+00, 1.427519e+00, 4.275961e-02 
3820, 5.415044e+00, 7.780600e+00, 2.728967e+00, 1.425558e+00, 4.257888e-02 
3830, 5.415690e+00, 7.767615e+00, 2.728083e+00, 1.423640e+00, 4.240075e-02 
3840, 5.416345e+00, 7.754937e+00, 2.727225e+00, 1.421763e+00, 4.222515e-02 
3850, 5.417009e+00, 7.742556e+00, 2.726390e+00, 1.419928e+00, 4.205201e-02 
3860, 5.417681e+00, 7.730465e+00, 2.725579e+00, 1.418133e+00, 4.188127e-02 
3870, 5.418360e+00, 7.718655e+00, 2.724790e+00, 1.416376e+00, 4.171288e-02 
3880, 5.419045e+00, 7.707120e+00, 2.724023e+00, 1.414658e+00, 4.154676e-02 
3890, 5.419734e+00, 7.695850e+00, 2.723277e+00, 1.412976e+00, 4.138288e-02 
3900, 5.420428e+00, 7.684841e+00, 2.722551e+00, 1.411331e+00, 4.122118e-02 
3910, 5.421125e+00, 7.674086e+00, 2.721845e+00, 1.409721e+00, 4.106160e-02 
3920, 5.421824e+00, 7.663576e+00, 2.721158e+00, 1.408146e+00, 4.090410e-02 
3930, 5.422524e+00, 7.653308e+00, 2.720489e+00, 1.406605e+00, 4.074863e-02 
3940, 5.423226e+00, 7.643275e+00, 2.719839e+00, 1.405097e+00, 4.059514e-02 
3950, 5.423926e+00, 7.633470e+00, 2.719206e+00, 1.403621e+00, 4.044360e-02 
3960, 5.424626e+00, 7.623890e+00, 2.718589e+00, 1.402178e+00, 4.029396e-02 
3970, 5.425324e+00, 7.614529e+00, 2.717989e+00, 1.400765e+00, 4.014618e-02 
3980, 5.426020e+00, 7.605381e+00, 2.717405e+00, 1.399383e+00, 4.000022e-02 
3990, 5.426712e+00, 7.596443e+00, 2.716837e+00, 1.398031e+00, 3.985605e-02 
4000, 5.427400e+00, 7.587708e+00, 2.716283e+00, 1.396708e+00, 3.971363e-02 
4010, 5.428084e+00, 7.579175e+00, 2.715744e+00, 1.395414e+00, 3.957291e-02 
4020, 5.428762e+00, 7.570837e+00, 2.715219e+00, 1.394149e+00, 3.943388e-02 
4030, 5.429435e+00, 7.562691e+00, 2.714707e+00, 1.392911e+00, 3.929650e-02 
4040, 5.430100e+00, 7.554733e+00, 2.714209e+00, 1.391701e+00, 3.916073e-02 
4050, 5.430759e+00, 7.546959e+00, 2.713724e+00, 1.390517e+00, 3.902655e-02 
4060, 5.431411e+00, 7.539366e+00, 2.713251e+00, 1.389360e+00, 3.889392e-02 
4070, 5.432054e+00, 7.531950e+00, 2.712791e+00, 1.388229e+00, 3.876282e-02 
4080, 5.432689e+00, 7.524708e+00, 2.712342e+00, 1.387124e+00, 3.863322e-02 
4090, 5.433315e+00, 7.517636e+00, 2.711905e+00, 1.386043e+00, 3.850509e-02 
4100, 5.433931e+00, 7.510732e+00, 2.711480e+00, 1.384988e+00, 3.837841e-02 
4110, 5.434538e+00, 7.503992e+00, 2.711065e+00, 1.383957e+00, 3.825315e-02 
4120, 5.435134e+00, 7.497414e+00, 2.710661e+00, 1.382949e+00, 3.812929e-02 
4130, 5.435720e+00, 7.490994e+00, 2.710267e+00, 1.381966e+00, 3.800680e-02 
4140, 5.436295e+00, 7.484730e+00, 2.709884e+00, 1.381006e+00, 3.788567e-02 
4150, 5.436858e+00, 7.478620e+00, 2.709511e+00, 1.380068e+00, 3.776586e-02 
4160, 5.437411e+00, 7.472660e+00, 2.709147e+00, 1.379154e+00, 3.764735e-02 
4170, 5.437951e+00, 7.466849e+00, 2.708792e+00, 1.378262e+00, 3.753013e-02 
4180, 5.438480e+00, 7.461183e+00, 2.708447e+00, 1.377391e+00, 3.741418e-02 
4190, 5.438997e+00, 7.455661e+00, 2.708111e+00, 1.376543e+00, 3.729947e-02 
4200, 5.439501e+00, 7.450280e+00, 2.707784e+00, 1.375715e+00, 3.718599e-02 
4210, 5.439993e+00, 7.445039e+00, 2.707465e+00, 1.374909e+00, 3.707371e-02 
4220, 5.440472e+00, 7.439934e+00, 2.707155e+00, 1.374124e+00, 3.696261e-02 
4230, 5.440938e+00, 7.434965e+00, 2.706853e+00, 1.373359e+00, 3.685269e-02 
4240, 5.441391e+00, 7.430128e+00, 2.706559e+00, 1.372615e+00, 3.674392e-02 
4250, 5.441832e+00, 7.425423e+00, 2.706273e+00, 1.371891e+00, 3.663628e-02 
4260, 5.442259e+00, 7.420846e+00, 2.705995e+00, 1.371186e+00, 3.652976e-02 
4270, 5.442672e+00, 7.416397e+00, 2.705725e+00, 1.370501e+00, 3.642434e-02 
4280, 5.443073e+00, 7.412074e+00, 2.705462e+00, 1.369835e+00, 3.632001e-02 
4290, 5.443460e+00, 7.407874e+00, 2.705206e+00, 1.369189e+00, 3.621674e-02 
4300, 5.443834e+00, 7.403797e+00, 2.704957e+00, 1.368561e+00, 3.611453e-02 
4310, 5.444195e+00, 7.399840e+00, 2.704716e+00, 1.367952e+00, 3.601336e-02 
4320, 5.444542e+00, 7.396002e+00, 2.704481e+00, 1.367361e+00, 3.591322e-02 
4330, 5.444876e+00, 7.392281e+00, 2.704253e+00, 1.366788e+00, 3.581408e-02 
4340, 5.445197e+00, 7.388676e+00, 2.704032e+00, 1.366233e+00, 3.571594e-02 
4350, 5.445504e+00, 7.385185e+00, 2.703818e+00, 1.365696e+00, 3.561878e-02 
4360, 5.445798e+00, 7.381807e+00, 2.703609e+00, 1.365176e+00, 3.552260e-02 
4370, 5.446079e+00, 7.378541e+00, 2.703408e+00, 1.364674e+00, 3.542737e-02 
4380, 5.446346e+00, 7.375385e+00, 2.703212e+00, 1.364189e+00, 3.533308e-02 
4390, 5.446601e+00, 7.372337e+00, 2.703023e+00, 1.363721e+00, 3.523972e-02 
4400, 5.446842e+00, 7.369397e+00, 2.702840e+00, 1.363269e+00, 3.514728e-02 
4410, 5.447071e+00, 7.366562e+00, 2.702663e+00, 1.362834e+00, 3.505575e-02 
4420, 5.447286e+00, 7.363833e+00, 2.702492e+00, 1.362415e+00, 3.496511e-02 
4430, 5.447489e+00, 7.361207e+00, 2.702326e+00, 1.362013e+00, 3.487535e-02 
4440, 5.447680e+00, 7.358683e+00, 2.702167e+00, 1.361626e+00, 3.478647e-02 
4450, 5.447857e+00, 7.356261e+00, 2.702013e+00, 1.361256e+00, 3.469844e-02 
4460, 5.448023e+00, 7.353939e+00, 2.701865e+00, 1.360901e+00, 3.461127e-02 
4470, 5.448176e+00, 7.351715e+00, 2.701722e+00, 1.360561e+00, 3.452493e-02 
4480, 5.448317e+00, 7.349589e+00, 2.701585e+00, 1.360237e+00, 3.443942e-02 
4490, 5.448446e+00, 7.347560e+00, 2.701453e+00, 1.359927e+00, 3.435473e-02 
4500, 5.448563e+00, 7.345626e+00, 2.701327e+00, 1.359633e+00, 3.427084e-02 
4510, 5.448668e+00, 7.343787e+00, 2.701205e+00, 1.359354e+00, 3.418775e-02 
4520, 5.448762e+00, 7.342041e+00, 2.701089e+00, 1.359089e+00, 3.410545e-02 
4530, 5.448844e+00, 7.340388e+00, 2.700979e+00, 1.358838e+00, 3.402393e-02 
4540, 5.448915e+00, 7.338825e+00, 2.700873e+00, 1.358602e+00, 3.394317e-02 
4550, 5.448975e+00, 7.337354e+00, 2.700773e+00, 1.358381e+00, 3.386317e-02 
4560, 5.449023e+00, 7.335972e+00, 2.700677e+00, 1.358173e+00, 3.378392e-02 
4570, 5.449061e+00, 7.334678e+00, 2.700587e+00, 1.357979e+00, 3.370542e-02 
4580, 5.449089e+00, 7.333472e+00, 2.700501e+00, 1.357798e+00, 3.362764e-02 
4590, 5.449106e+00, 7.332352e+00, 2.700420e+00, 1.357632e+00, 3.355058e-02 
4600, 5.449112e+00, 7.331319e+00, 2.700344e+00, 1.357478e+00, 3.347424e-02 
4610, 5.449109e+00, 7.330370e+00, 2.700273e+00, 1.357338e+00, 3.339861e-02 
4620, 5.449095e+00, 7.329505e+00, 2.700207e+00, 1.357212e+00, 3.332367e-02 
4630, 5.449072e+00, 7.328723e+00, 2.700146e+00, 1.357098e+00, 3.324942e-02 
4640, 5.449039e+00, 7.328023e+00, 2.700089e+00, 1.356997e+00, 3.317585e-02 
4650, 5.448996e+00, 7.327405e+00, 2.700036e+00, 1.356909e+00, 3.310295e-02 
4660, 5.448945e+00, 7.326868e+00, 2.699989e+00, 1.356833e+00, 3.303071e-02 
4670, 5.448884e+00, 7.326410e+00, 2.699946e+00, 1.356770e+00, 3.295914e-02 
4680, 5.448814e+00, 7.326031e+00, 2.699907e+00, 1.356719e+00, 3.288821e-02 
4690, 5.448736e+00, 7.325730e+00, 2.699874e+00, 1.356680e+00, 3.281793e-02 
4700, 5.448649e+00, 7.325507e+00, 2.699844e+00, 1.356654e+00, 3.274828e-02 
4710, 5.448553e+00, 7.325360e+00, 2.699819e+00, 1.356639e+00, 3.267925e-02 
4720, 5.448450e+00, 7.325290e+00, 2.699798e+00, 1.356636e+00, 3.261085e-02 
4730, 5.448338e+00, 7.325294e+00, 2.699782e+00, 1.356645e+00, 3.254306e-02 
4740, 5.448219e+00, 7.325373e+00, 2.699770e+00, 1.356666e+00, 3.247587e-02 
4750, 5.448091e+00, 7.325525e+00, 2.699763e+00, 1.356698e+00, 3.240928e-02 
4760, 5.447957e+00, 7.325751e+00, 2.699760e+00, 1.356741e+00, 3.234329e-02 
4770, 5.447815e+00, 7.326049e+00, 2.699761e+00, 1.356796e+00, 3.227788e-02 
4780, 5.447666e+00, 7.326418e+00, 2.699766e+00, 1.356861e+00, 3.221305e-02 
4790, 5.447510e+00, 7.326858e+00, 2.699776e+00, 1.356938e+00, 3.214879e-02 
4800, 5.447347e+00, 7.327368e+00, 2.699790e+00, 1.357026e+00, 3.208510e-02 
4810, 5.447177e+00, 7.327948e+00, 2.699808e+00, 1.357124e+00, 3.202197e-02 
4820, 5.447001e+00, 7.328597e+00, 2.699830e+00, 1.357233e+00, 3.195939e-02 
4830, 5.446819e+00, 7.329314e+00, 2.699856e+00, 1.357353e+00, 3.189736e-02 
4840, 5.446631e+00, 7.330098e+00, 2.699887e+00, 1.357482e+00, 3.183587e-02 
4850, 5.446437e+00, 7.330950e+00, 2.699922e+00, 1.357623e+00, 3.177491e-02 
4860, 5.446237e+00, 7.331868e+00, 2.699960e+00, 1.357773e+00, 3.171448e-02 
4870, 5.446031e+00, 7.332851e+00, 2.700003e+00, 1.357934e+00, 3.165458e-02 
4880, 5.445820e+00, 7.333900e+00, 2.700050e+00, 1.358105e+00, 3.159519e-02 
4890, 5.445604e+00, 7.335012e+00, 2.700100e+00, 1.358285e+00, 3.153632e-02 
4900, 5.445382e+00, 7.336189e+00, 2.700155e+00, 1.358475e+00, 3.147795e-02 
4910, 5.445156e+00, 7.337429e+00, 2.700214e+00, 1.358676e+00, 3.142009e-02 
4920, 5.444925e+00, 7.338732e+00, 2.700277e+00, 1.358885e+00, 3.136272e-02 
4930, 5.444689e+00, 7.340097e+00, 2.700343e+00, 1.359104e+00, 3.130584e-02 
4940, 5.444449e+00, 7.341523e+00, 2.700414e+00, 1.359333e+00, 3.124944e-02 
4950, 5.444204e+00, 7.343011e+00, 2.700488e+00, 1.359571e+00, 3.119352e-02 
4960, 5.443956e+00, 7.344558e+00, 2.700567e+00, 1.359818e+00, 3.113808e-02 
4970, 5.443703e+00, 7.346166e+00, 2.700649e+00, 1.360074e+00, 3.108311e-02 
4980, 5.443447e+00, 7.347833e+00, 2.700735e+00, 1.360339e+00, 3.102860e-02 
4990, 5.443187e+00, 7.349559e+00, 2.700825e+00, 1.360614e+00, 3.097455e-02 
5000, 5.442923e+00, 7.351343e+00, 2.700919e+00, 1.360897e+00, 3.092095e-02 
5010, 5.442655e+00, 7.353184e+00, 2.701016e+00, 1.361188e+00, 3.086781e-02 
5020, 5.442385e+00, 7.355083e+00, 2.701118e+00, 1.361489e+00, 3.081511e-02 
5030, 5.442111e+00, 7.357039e+00, 2.701223e+00, 1.361798e+00, 3.076285e-02 
5040, 5.441835e+00, 7.359050e+00, 2.701332e+00, 1.362115e+00, 3.071102e-02 
5050, 5.441555e+00, 7.361118e+00, 2.701444e+00, 1.362441e+00, 3.065963e-02 
5060, 5.441273e+00, 7.363240e+00, 2.701561e+00, 1.362775e+00, 3.060866e-02 
5070, 5.440989e+00, 7.365417e+00, 2.701681e+00, 1.363118e+00, 3.055811e-02 
5080, 5.440702e+00, 7.367649e+00, 2.701804e+00, 1.363468e+00, 3.050798e-02 
5090, 5.440412e+00, 7.369934e+00, 2.701932e+00, 1.363827e+00, 3.045826e-02 
5100, 5.440121e+00, 7.372272e+00, 2.702063e+00, 1.364193e+00, 3.040896e-02 
5110, 5.439827e+00, 7.374663e+00, 2.702198e+00, 1.364568e+00, 3.036005e-02 
5120, 5.439531e+00, 7.377106e+00, 2.702336e+00, 1.364950e+00, 3.031155e-02 
5130, 5.439234e+00, 7.379601e+00, 2.702478e+00, 1.365340e+00, 3.026344e-02 
5140, 5.438935e+00, 7.382148e+00, 2.702623e+00, 1.365737e+00, 3.021572e-02 
5150, 5.438635e+00, 7.384745e+00, 2.702773e+00, 1.366143e+00, 3.016840e-02 
5160, 5.438333e+00, 7.387393e+00, 2.702925e+00, 1.366555e+00, 3.012145e-02 
5170, 5.438029e+00, 7.390091e+00, 2.703082e+00, 1.366975e+00, 3.007489e-02 
5180, 5.437725e+00, 7.392839e+00, 2.703242e+00, 1.367403e+00, 3.002870e-02 
5190, 5.437419e+00, 7.395635e+00, 2.703405e+00, 1.367837e+00, 2.998288e-02 
5200, 5.437113e+00, 7.398480e+00, 2.703572e+00, 1.368279e+00, 2.993743e-02 
5210, 5.436806e+00, 7.401374e+00, 2.703742e+00, 1.368728e+00, 2.989235e-02 
5220, 5.436497e+00, 7.404316e+00, 2.703916e+00, 1.369184e+00, 2.984763e-02 
5230, 5.436189e+00, 7.407304e+00, 2.704093e+00, 1.369647e+00, 2.980326e-02 
5240, 5.435880e+00, 7.410340e+00, 2.704274e+00, 1.370116e+00, 2.975925e-02 
5250, 5.435570e+00, 7.413423e+00, 2.704458e+00, 1.370593e+00, 2.971558e-02 
5260, 5.435260e+00, 7.416552e+00, 2.704646e+00, 1.371076e+00, 2.967227e-02 
5270, 5.434950e+00, 7.419726e+00, 2.704837e+00, 1.371566e+00, 2.962929e-02 
5280, 5.434640e+00, 7.422946e+00, 2.705032e+00, 1.372063e+00, 2.958666e-02 
5290, 5.434329e+00, 7.426211e+00, 2.705229e+00, 1.372566e+00, 2.954436e-02 
5300, 5.434019e+00, 7.429521e+00, 2.705431e+00, 1.373075e+00, 2.950239e-02 
5310, 5.433709e+00, 7.432875e+00, 2.705635e+00, 1.373591e+00, 2.946075e-02 
5320, 5.433400e+00, 7.436273e+00, 2.705843e+00, 1.374114e+00, 2.941944e-02 
5330, 5.433090e+00, 7.439715e+00, 2.706055e+00, 1.374642e+00, 2.937845e-02 
5340, 5.432781e+00, 7.443199e+00, 2.706269e+00, 1.375177e+00, 2.933778e-02 
5350, 5.432473e+00, 7.446727e+00, 2.706487e+00, 1.375718e+00, 2.929743e-02 
5360, 5.432166e+00, 7.450297e+00, 2.706709e+00, 1.376265e+00, 2.925739e-02 
5370, 5.431859e+00, 7.453908e+00, 2.706933e+00, 1.376818e+00, 2.921766e-02 
5380, 5.431552e+00, 7.457562e+00, 2.707161e+00, 1.377377e+00, 2.917823e-02 
5390, 5.431247e+00, 7.461257e+00, 2.707392e+00, 1.377942e+00, 2.913911e-02 
5400, 5.430943e+00, 7.464993e+00, 2.707626e+00, 1.378512e+00, 2.910029e-02 
5410, 5.430640e+00, 7.468769e+00, 2.707864e+00, 1.379089e+00, 2.906177e-02 
5420, 5.430338e+00, 7.472586e+00, 2.708104e+00, 1.379671e+00, 2.902355e-02 
5430, 5.430037e+00, 7.476443e+00, 2.708348e+00, 1.380259e+00, 2.898561e-02 
5440, 5.429738e+00, 7.480339e+00, 2.708596e+00, 1.380852e+00, 2.894797e-02 
5450, 5.429439e+00, 7.484275e+00, 2.708846e+00, 1.381451e+00, 2.891061e-02 
5460, 5.429143e+00, 7.488250e+00, 2.709099e+00, 1.382055e+00, 2.887353e-02 
5470, 5.428848e+00, 7.492263e+00, 2.709356e+00, 1.382665e+00, 2.883674e-02 
5480, 5.428554e+00, 7.496315e+00, 2.709616e+00, 1.383280e+00, 2.880022e-02 
5490, 5.428262e+00, 7.500404e+00, 2.709879e+00, 1.383900e+00, 2.876398e-02 
5500, 5.427972e+00, 7.504531e+00, 2.710145e+00, 1.384526e+00, 2.872801e-02 
5510, 5.427684e+00, 7.508696e+00, 2.710414e+00, 1.385157e+00, 2.869231e-02 
5520, 5.427397e+00, 7.512898e+00, 2.710686e+00, 1.385793e+00, 2.865687e-02 
5530, 5.427113e+00, 7.517136e+00, 2.710961e+00, 1.386434e+00, 2.862171e-02 
5540, 5.426830e+00, 7.521411e+00, 2.711240e+00, 1.387080e+00, 2.858680e-02 
5550, 5.426550e+00, 7.525722e+00, 2.711521e+00, 1.387731e+00, 2.855216e-02 
5560, 5.426271e+00, 7.530069e+00, 2.711805e+00, 1.388387e+00, 2.851777e-02 
5570, 5.425995e+00, 7.534452e+00, 2.712093e+00, 1.389047e+00, 2.848363e-02 
5580, 5.425721e+00, 7.538869e+00, 2.712383e+00, 1.389713e+00, 2.844975e-02 
5590, 5.425449e+00, 7.543322e+00, 2.712677e+00, 1.390383e+00, 2.841612e-02 
5600, 5.425180e+00, 7.547809e+00, 2.712973e+00, 1.391059e+00, 2.838274e-02 
5610, 5.424913e+00, 7.552331e+00, 2.713273e+00, 1.391738e+00, 2.834960e-02 
5620, 5.424649e+00, 7.556887e+00, 2.713575e+00, 1.392423e+00, 2.831670e-02 
5630, 5.424387e+00, 7.561476e+00, 2.713880e+00, 1.393112e+00, 2.828405e-02 
5640, 5.424127e+00, 7.566099e+00, 2.714189e+00, 1.393805e+00, 2.825163e-02 
5650, 5.423871e+00, 7.570756e+00, 2.714500e+00, 1.394503e+00, 2.821945e-02 
5660, 5.423617e+00, 7.575445e+00, 2.714814e+00, 1.395205e+00, 2.818750e-02 
5670, 5.423365e+00, 7.580168e+00, 2.715131e+00, 1.395912e+00, 2.815578e-02 
5680, 5.423117e+00, 7.584922e+00, 2.715451e+00, 1.396623e+00, 2.812430e-02 
5690, 5.422871e+00, 7.589709e+00, 2.715774e+00, 1.397338e+00, 2.809304e-02 
5700, 5.422628e+00, 7.594528e+00, 2.716099e+00, 1.398058e+00, 2.806200e-02 
5710, 5.422389e+00, 7.599379e+00, 2.716428e+00, 1.398782e+00, 2.803119e-02 
5720, 5.422152e+00, 7.604260e+00, 2.716759e+00, 1.399510e+00, 2.800060e-02 
5730, 5.421918e+00, 7.609174e+00, 2.717093e+00, 1.400242e+00, 2.797023e-02 
5740, 5.421687e+00, 7.614118e+00, 2.717430e+00, 1.400978e+00, 2.794007e-02 
5750, 5.421459e+00, 7.619092e+00, 2.717770e+00, 1.401718e+00, 2.791013e-02 
5760, 5.421234e+00, 7.624098e+00, 2.718112e+00, 1.402462e+00, 2.788040e-02 
5770, 5.421013e+00, 7.629133e+00, 2.718457e+00, 1.403210e+00, 2.785089e-02 
5780, 5.420795e+00, 7.634198e+00, 2.718806e+00, 1.403962e+00, 2.782158e-02 
5790, 5.420579e+00, 7.639293e+00, 2.719156e+00, 1.404718e+00, 2.779248e-02 
5800, 5.420368e+00, 7.644418e+00, 2.719510e+00, 1.405477e+00, 2.776358e-02 
5810, 5.420159e+00, 7.649572e+00, 2.719866e+00, 1.406240e+00, 2.773489e-02 
5820, 5.419954e+00, 7.654754e+00, 2.720225e+00, 1.407008e+00, 2.770640e-02 
5830, 5.419753e+00, 7.659966e+00, 2.720587e+00, 1.407778e+00, 2.767811e-02 
5840, 5.419555e+00, 7.665206e+00, 2.720951e+00, 1.408553e+00, 2.765001e-02 
5850, 5.419360e+00, 7.670474e+00, 2.721318e+00, 1.409331e+00, 2.762211e-02 
5860, 5.419169e+00, 7.675771e+00, 2.721688e+00, 1.410112e+00, 2.759441e-02 
5870, 5.418981e+00, 7.681095e+00, 2.722060e+00, 1.410897e+00, 2.756689e-02 
5880, 5.418797e+00, 7.686447e+00, 2.722435e+00, 1.411686e+00, 2.753957e-02 
5890, 5.418616e+00, 7.691827e+00, 2.722813e+00, 1.412478e+00, 2.751244e-02 
5900, 5.418439e+00, 7.697233e+00, 2.723193e+00, 1.413273e+00, 2.748549e-02 
5910, 5.418266e+00, 7.702667e+00, 2.723576e+00, 1.414072e+00, 2.745873e-02 
5920, 5.418097e+00, 7.708127e+00, 2.723962e+00, 1.414875e+00, 2.743215e-02 
5930, 5.417931e+00, 7.713615e+00, 2.724350e+00, 1.415680e+00, 2.740576e-02 
5940, 5.417769e+00, 7.719128e+00, 2.724740e+00, 1.416489e+00, 2.737955e-02 
5950, 5.417610e+00, 7.724668e+00, 2.725133e+00, 1.417301e+00, 2.735351e-02 
5960, 5.417456e+00, 7.730233e+00, 2.725529e+00, 1.418116e+00, 2.732765e-02 
5970, 5.417305e+00, 7.735824e+00, 2.725927e+00, 1.418934e+00, 2.730197e-02 
5980, 5.417158e+00, 7.741441e+00, 2.726328e+00, 1.419756e+00, 2.727646e-02 
5990, 5.417015e+00, 7.747084e+00, 2.726731e+00, 1.420581e+00, 2.725112e-02 
6000, 5.416876e+00, 7.752751e+00, 2.727137e+00, 1.421408e+00, 2.722596e-02 
6010, 5.416741e+00, 7.758444e+00, 2.727546e+00, 1.422239e+00, 2.720096e-02 
6020, 5.416610e+00, 7.764161e+00, 2.727956e+00, 1.423073e+00, 2.717613e-02 
6030, 5.416482e+00, 7.769902e+00, 2.728370e+00, 1.423909e+00, 2.715147e-02 
6040, 5.416359e+00, 7.775669e+00, 2.728785e+00, 1.424749e+00, 2.712697e-02 
6050, 5.416240e+00, 7.781459e+00, 2.729203e+00, 1.425592e+00, 2.710264e-02 
6060, 5.416124e+00, 7.787274e+00, 2.729624e+00, 1.426437e+00, 2.707847e-02 
6070, 5.416013e+00, 7.793112e+00, 2.730047e+00, 1.427285e+00, 2.705446e-02 
6080, 5.415906e+00, 7.798974e+00, 2.730472e+00, 1.428136e+00, 2.703061e-02 
6090, 5.415803e+00, 7.804859e+00, 2.730900e+00, 1.428990e+00, 2.700692e-02 
6100, 5.415704e+00, 7.810768e+00, 2.731330e+00, 1.429847e+00, 2.698338e-02 
6110, 5.415609e+00, 7.816700e+00, 2.731763e+00, 1.430706e+00, 2.696000e-02 
6120, 5.415518e+00, 7.822654e+00, 2.732198e+00, 1.431568e+00, 2.693677e-02 
6130, 5.415432e+00, 7.828632e+00, 2.732635e+00, 1.432433e+00, 2.691370e-02 
6140, 5.415349e+00, 7.834632e+00, 2.733075e+00, 1.433300e+00, 2.689077e-02 
6150, 5.415271e+00, 7.840655e+00, 2.733517e+00, 1.434170e+00, 2.686800e-02 
6160, 5.415197e+00, 7.846700e+00, 2.733961e+00, 1.435042e+00, 2.684537e-02 
6170, 5.415127e+00, 7.852767e+00, 2.734408e+00, 1.435917e+00, 2.682289e-02 
6180, 5.415062e+00, 7.858855e+00, 2.734857e+00, 1.436795e+00, 2.680056e-02 
6190, 5.415000e+00, 7.864966e+00, 2.735308e+00, 1.437675e+00, 2.677837e-02 
6200, 5.414943e+00, 7.871098e+00, 2.735761e+00, 1.438557e+00, 2.675633e-02 
6210, 5.414890e+00, 7.877252e+00, 2.736217e+00, 1.439442e+00, 2.673443e-02 
6220, 5.414842e+00, 7.883427e+00, 2.736675e+00, 1.440329e+00, 2.671267e-02 
6230, 5.414797e+00, 7.889623e+00, 2.737135e+00, 1.441219e+00, 2.669105e-02 
6240, 5.414758e+00, 7.895840e+00, 2.737598e+00, 1.442111e+00, 2.666956e-02 
6250, 5.414722e+00, 7.902078e+00, 2.738063e+00, 1.443005e+00, 2.664822e-02 
6260, 5.414690e+00, 7.908336e+00, 2.738529e+00, 1.443902e+00, 2.662701e-02 
6270, 5.414663e+00, 7.914615e+00, 2.738999e+00, 1.444801e+00, 2.660594e-02 
6280, 5.414641e+00, 7.920914e+00, 2.739470e+00, 1.445702e+00, 2.658500e-02 
6290, 5.414623e+00, 7.927234e+00, 2.739943e+00, 1.446605e+00, 2.656419e-02 
6300, 5.414609e+00, 7.933573e+00, 2.740419e+00, 1.447511e+00, 2.654352e-02 
6310, 5.414599e+00, 7.939933e+00, 2.740897e+00, 1.448419e+00, 2.652297e-02 
6320, 5.414594e+00, 7.946312e+00, 2.741377e+00, 1.449329e+00, 2.650256e-02 
6330, 5.414593e+00, 7.952710e+00, 2.741859e+00, 1.450241e+00, 2.648227e-02 
6340, 5.414597e+00, 7.959129e+00, 2.742343e+00, 1.451155e+00, 2.646211e-02 
6350, 5.414605e+00, 7.965566e+00, 2.742830e+00, 1.452071e+00, 2.644208e-02 
6360, 5.414617e+00, 7.972023e+00, 2.743318e+00, 1.452989e+00, 2.642217e-02 
6370, 5.414634e+00, 7.978498e+00, 2.743809e+00, 1.453909e+00, 2.640239e-02 
6380, 5.414656e+00, 7.984993e+00, 2.744301e+00, 1.454832e+00, 2.638273e-02 
6390, 5.414681e+00, 7.991506e+00, 2.744796e+00, 1.455756e+00, 2.636319e-02 
6400, 5.414712e+00, 7.998038e+00, 2.745293e+00, 1.456682e+00, 2.634377e-02 
6410, 5.414746e+00, 8.004588e+00, 2.745792e+00, 1.457610e+00, 2.632448e-02 
6420, 5.414785e+00, 8.011157e+00, 2.746293e+00, 1.458540e+00, 2.630530e-02 
6430, 5.414829e+00, 8.017744e+00, 2.746796e+00, 1.459472e+00, 2.628624e-02 
6440, 5.414877e+00, 8.024349e+00, 2.747301e+00, 1.460406e+00, 2.626730e-02 
6450, 5.414929e+00, 8.030972e+00, 2.747808e+00, 1.461342e+00, 2.624847e-02 
6460, 5.414986e+00, 8.037613e+00, 2.748317e+00, 1.462279e+00, 2.622976e-02 
6470, 5.415048e+00, 8.044271e+00, 2.748828e+00, 1.463218e+00, 2.621117e-02 
6480, 5.415114e+00, 8.050947e+00, 2.749341e+00, 1.464159e+00, 2.619269e-02 
6490, 5.415184e+00, 8.057641e+00, 2.749856e+00, 1.465102e+00, 2.617432e-02 
6500, 5.415259e+00, 8.064352e+00, 2.750373e+00, 1.466047e+00, 2.615606e-02 
6510, 5.415339e+00, 8.071079e+00, 2.750892e+00, 1.466993e+00, 2.613791e-02 
6520, 5.415423e+00, 8.077825e+00, 2.751413e+00, 1.467941e+00, 2.611987e-02 
6530, 5.415511e+00, 8.084586e+00, 2.751936e+00, 1.468891e+00, 2.610194e-02 
6540, 5.415604e+00, 8.091365e+00, 2.752461e+00, 1.469842e+00, 2.608412e-02 
6550, 5.415701e+00, 8.098161e+00, 2.752987e+00, 1.470795e+00, 2.606641e-02 
6560, 5.415803e+00, 8.104973e+00, 2.753516e+00, 1.471750e+00, 2.604880e-02 
6570, 5.415910e+00, 8.111801e+00, 2.754047e+00, 1.472706e+00, 2.603130e-02 
6580, 5.416021e+00, 8.118646e+00, 2.754579e+00, 1.473664e+00, 2.601390e-02 
6590, 5.416136e+00, 8.125507e+00, 2.755113e+00, 1.474623e+00, 2.599660e-02 
6600, 5.416256e+00, 8.132384e+00, 2.755649e+00, 1.475584e+00, 2.597941e-02 
6610, 5.416381e+00, 8.139277e+00, 2.756188e+00, 1.476546e+00, 2.596232e-02 
6620, 5.416510e+00, 8.146187e+00, 2.756727e+00, 1.477510e+00, 2.594534e-02 
6630, 5.416643e+00, 8.153111e+00, 2.757269e+00, 1.478476e+00, 2.592845e-02 
6640, 5.416781e+00, 8.160052e+00, 2.757813e+00, 1.479443e+00, 2.591166e-02 
6650, 5.416924e+00, 8.167008e+00, 2.758358e+00, 1.480411e+00, 2.589497e-02 
6660, 5.417071e+00, 8.173979e+00, 2.758906e+00, 1.481381e+00, 2.587838e-02 
6670, 5.417223e+00, 8.180966e+00, 2.759455e+00, 1.482352e+00, 2.586189e-02 
6680, 5.417379e+00, 8.187968e+00, 2.760006e+00, 1.483325e+00, 2.584549e-02 
6690, 5.417539e+00, 8.194985e+00, 2.760558e+00, 1.484299e+00, 2.582919e-02 
6700, 5.417705e+00, 8.202017e+00, 2.761113e+00, 1.485274e+00, 2.581298e-02 
6710, 5.417874e+00, 8.209065e+00, 2.761669e+00, 1.486251e+00, 2.579687e-02 
6720, 5.418048e+00, 8.216126e+00, 2.762227e+00, 1.487229e+00, 2.578085e-02 
6730, 5.418227e+00, 8.223203e+00, 2.762787e+00, 1.488208e+00, 2.576493e-02 
6740, 5.418410e+00, 8.230294e+00, 2.763348e+00, 1.489189e+00, 2.574910e-02 
6750, 5.418598e+00, 8.237400e+00, 2.763912e+00, 1.490171e+00, 2.573335e-02 
6760, 5.418790e+00, 8.244520e+00, 2.764477e+00, 1.491154e+00, 2.571770e-02 
6770, 5.418987e+00, 8.251654e+00, 2.765043e+00, 1.492138e+00, 2.570214e-02 
6780, 5.419188e+00, 8.258803e+00, 2.765612e+00, 1.493124e+00, 2.568667e-02 
6790, 5.419394e+00, 8.265966e+00, 2.766182e+00, 1.494111e+00, 2.567128e-02 
6800, 5.419605e+00, 8.273142e+00, 2.766754e+00, 1.495099e+00, 2.565599e-02 
6810, 5.419819e+00, 8.280333e+00, 2.767327e+00, 1.496088e+00, 2.564078e-02 
6820, 5.420039e+00, 8.287537e+00, 2.767902e+00, 1.497079e+00, 2.562566e-02 
6830, 5.420262e+00, 8.294755e+00, 2.768479e+00, 1.498071e+00, 2.561062e-02 
6840, 5.420491e+00, 8.301987e+00, 2.769058e+00, 1.499063e+00, 2.559567e-02 
6850, 5.420723e+00, 8.309233e+00, 2.769638e+00, 1.500057e+00, 2.558080e-02 
6860, 5.420961e+00, 8.316491e+00, 2.770220e+00, 1.501052e+00, 2.556602e-02 
6870, 5.421202e+00, 8.323763e+00, 2.770804e+00, 1.502049e+00, 2.555132e-02 
6880, 5.421449e+00, 8.331049e+00, 2.771389e+00, 1.503046e+00, 2.553671e-02 
6890, 5.421699e+00, 8.338347e+00, 2.771976e+00, 1.504044e+00, 2.552217e-02 
6900, 5.421955e+00, 8.345659e+00, 2.772564e+00, 1.505044e+00, 2.550772e-02 
6910, 5.422214e+00, 8.352983e+00, 2.773154e+00, 1.506044e+00, 2.549334e-02 
6920, 5.422478e+00, 8.360321e+00, 2.773746e+00, 1.507045e+00, 2.547905e-02 
6930, 5.422747e+00, 8.367671e+00, 2.774339e+00, 1.508048e+00, 2.546484e-02 
6940, 5.423020e+00, 8.375034e+00, 2.774933e+00, 1.509051e+00, 2.545071e-02 
6950, 5.423298e+00, 8.382410e+00, 2.775530e+00, 1.510056e+00, 2.543665e-02 
6960, 5.423579e+00, 8.389798e+00, 2.776128e+00, 1.511061e+00, 2.542267e-02 
6970, 5.423866e+00, 8.397199e+00, 2.776727e+00, 1.512068e+00, 2.540877e-02 
6980, 5.424157e+00, 8.404612e+00, 2.777328e+00, 1.513075e+00, 2.539495e-02 
6990, 5.424452e+00, 8.412037e+00, 2.777931e+00, 1.514083e+00, 2.538120e-02 
7000, 5.424752e+00, 8.419475e+00, 2.778535e+00, 1.515092e+00, 2.536753e-02 
7010, 5.425056e+00, 8.426924e+00, 2.779141e+00, 1.516103e+00, 2.535393e-02 
7020, 5.425365e+00, 8.434386e+00, 2.779748e+00, 1.517114e+00, 2.534041e-02 
7030, 5.425678e+00, 8.441860e+00, 2.780357e+00, 1.518125e+00, 2.532696e-02 
7040, 5.425995e+00, 8.449346e+00, 2.780967e+00, 1.519138e+00, 2.531358e-02 
7050, 5.426317e+00, 8.456843e+00, 2.781578e+00, 1.520152e+00, 2.530028e-02 
7060, 5.426643e+00, 8.464352e+00, 2.782192e+00, 1.521166e+00, 2.528704e-02 
7070, 5.426974e+00, 8.471873e+00, 2.782806e+00, 1.522182e+00, 2.527388e-02 
7080, 5.427309e+00, 8.479406e+00, 2.783422e+00, 1.523198e+00, 2.526079e-02 
7090, 5.427649e+00, 8.486950e+00, 2.784040e+00, 1.524215e+00, 2.524778e-02 
7100, 5.427993e+00, 8.494505e+00, 2.784659e+00, 1.525232e+00, 2.523483e-02 
7110, 5.428341e+00, 8.502072e+00, 2.785280e+00, 1.526251e+00, 2.522195e-02 
7120, 5.428694e+00, 8.509650e+00, 2.785902e+00, 1.527270e+00, 2.520914e-02 
7130, 5.429051e+00, 8.517240e+00, 2.786525e+00, 1.528290e+00, 2.519640e-02 
7140, 5.429412e+00, 8.524840e+00, 2.787150e+00, 1.529311e+00, 2.518372e-02 
7150, 5.429778e+00, 8.532451e+00, 2.787776e+00, 1.530333e+00, 2.517112e-02 
7160, 5.430148e+00, 8.540074e+00, 2.788404e+00, 1.531355e+00, 2.515858e-02 
7170, 5.430523e+00, 8.547707e+00, 2.789033e+00, 1.532378e+00, 2.514611e-02 
7180, 5.430901e+00, 8.555352e+00, 2.789664e+00, 1.533402e+00, 2.513370e-02 
7190, 5.431285e+00, 8.563007e+00, 2.790296e+00, 1.534426e+00, 2.512136e-02 
7200, 5.431672e+00, 8.570672e+00, 2.790929e+00, 1.535452e+00, 2.510909e-02 
7210, 5.432064e+00, 8.578349e+00, 2.791564e+00, 1.536477e+00, 2.509687e-02 
7220, 5.432460e+00, 8.586036e+00, 2.792200e+00, 1.537504e+00, 2.508473e-02 
7230, 5.432861e+00, 8.593733e+00, 2.792837e+00, 1.538531e+00, 2.507265e-02 
7240, 5.433266e+00, 8.601441e+00, 2.793476e+00, 1.539559e+00, 2.506063e-02 
7250, 5.433675e+00, 8.609160e+00, 2.794116e+00, 1.540587e+00, 2.504867e-02 
7260, 5.434088e+00, 8.616888e+00, 2.794757e+00, 1.541616e+00, 2.503677e-02 
7270, 5.434506e+00, 8.624627e+00, 2.795400e+00, 1.542646e+00, 2.502494e-02 
7280, 5.434928e+00, 8.632376e+00, 2.796045e+00, 1.543676e+00, 2.501317e-02 
7290, 5.435354e+00, 8.640135e+00, 2.796690e+00, 1.544707e+00, 2.500146e-02 
7300, 5.435785e+00, 8.647904e+00, 2.797337e+00, 1.545739e+00, 2.498981e-02 
7310, 5.436220e+00, 8.655683e+00, 2.797985e+00, 1.546771e+00, 2.497822e-02 
7320, 5.436659e+00, 8.663472e+00, 2.798634e+00, 1.547803e+00, 2.496669e-02 
7330, 5.437102e+00, 8.671271e+00, 2.799285e+00, 1.548837e+00, 2.495522e-02 
7340, 5.437550e+00, 8.679080e+00, 2.799937e+00, 1.549870e+00, 2.494381e-02 
7350, 5.438002e+00, 8.686898e+00, 2.800591e+00, 1.550905e+00, 2.493246e-02 
7360, 5.438458e+00, 8.694726e+00, 2.801245e+00, 1.551939e+00, 2.492116e-02 
7370, 5.438919e+00, 8.702564e+00, 2.801901e+00, 1.552975e+00, 2.490992e-02 
7380, 5.439383e+00, 8.710411e+00, 2.802558e+00, 1.554011e+00, 2.489874e-02 
7390, 5.439852e+00, 8.718267e+00, 2.803217e+00, 1.555047e+00, 2.488762e-02 
7400, 5.440325e+00, 8.726133e+00, 2.803876e+00, 1.556084e+00, 2.487655e-02 
7410, 5.440803e+00, 8.734009e+00, 2.804537e+00, 1.557121e+00, 2.486554e-02 
7420, 5.441284e+00, 8.741893e+00, 2.805199e+00, 1.558159e+00, 2.485459e-02 
7430, 5.441770e+00, 8.749787e+00, 2.805863e+00, 1.559197e+00, 2.484369e-02 
7440, 5.442260e+00, 8.757690e+00, 2.806527e+00, 1.560236e+00, 2.483284e-02 
7450, 5.442754e+00, 8.765603e+00, 2.807193e+00, 1.561275e+00, 2.482205e-02 
7460, 5.443252e+00, 8.773524e+00, 2.807860e+00, 1.562315e+00, 2.481131e-02 
7470, 5.443755e+00, 8.781454e+00, 2.808529e+00, 1.563355e+00, 2.480063e-02 
7480, 5.444261e+00, 8.789393e+00, 2.809198e+00, 1.564395e+00, 2.479000e-02 
7490, 5.444772e+00, 8.797341e+00, 2.809869e+00, 1.565436e+00, 2.477943e-02 
7500, 5.445287e+00, 8.805298e+00, 2.810541e+00, 1.566478e+00, 2.476890e-02 
7510, 5.445806e+00, 8.813264e+00, 2.811214e+00, 1.567519e+00, 2.475843e-02 
7520, 5.446329e+00, 8.821239e+00, 2.811888e+00, 1.568562e+00, 2.474801e-02 
7530, 5.446857e+00, 8.829222e+00, 2.812563e+00, 1.569604e+00, 2.473764e-02 
7540, 5.447388e+00, 8.837214e+00, 2.813240e+00, 1.570647e+00, 2.472733e-02 
7550, 5.447924e+00, 8.845214e+00, 2.813918e+00, 1.571690e+00, 2.471706e-02 
7560, 5.448463e+00, 8.853223e+00, 2.814597e+00, 1.572734e+00, 2.470685e-02 
7570, 5.449007e+00, 8.861240e+00, 2.815277e+00, 1.573778e+00, 2.469668e-02 
7580, 5.449555e+00, 8.869266e+00, 2.815958e+00, 1.574822e+00, 2.468657e-02 
7590, 5.450107e+00, 8.877300e+00, 2.816640e+00, 1.575867e+00, 2.467650e-02 
7600, 5.450663e+00, 8.885343e+00, 2.817324e+00, 1.576912e+00, 2.466648e-02 
7610, 5.451223e+00, 8.893393e+00, 2.818009e+00, 1.577957e+00, 2.465652e-02 
7620, 5.451788e+00, 8.901452e+00, 2.818694e+00, 1.579003e+00, 2.464660e-02 
7630, 5.452356e+00, 8.909519e+00, 2.819381e+00, 1.580049e+00, 2.463672e-02 
7640, 5.452928e+00, 8.917594e+00, 2.820069e+00, 1.581095e+00, 2.462690e-02 
7650, 5.453505e+00, 8.925678e+00, 2.820758e+00, 1.582142e+00, 2.461713e-02 
7660, 5.454085e+00, 8.933769e+00, 2.821448e+00, 1.583188e+00, 2.460740e-02 
7670, 5.454670e+00, 8.941868e+00, 2.822140e+00, 1.584236e+00, 2.459772e-02 
7680, 5.455258e+00, 8.949975e+00, 2.822832e+00, 1.585283e+00, 2.458808e-02 
7690, 5.455851e+00, 8.958090e+00, 2.823525e+00, 1.586331e+00, 2.457849e-02 
7700, 5.456448e+00, 8.966213e+00, 2.824220e+00, 1.587379e+00, 2.456895e-02 
7710, 5.457048e+00, 8.974343e+00, 2.824916e+00, 1.588427e+00, 2.455945e-02 
7720, 5.457653e+00, 8.982481e+00, 2.825612e+00, 1.589475e+00, 2.455000e-02 
7730, 5.458261e+00, 8.990627e+00, 2.826310e+00, 1.590524e+00, 2.454059e-02 
7740, 5.458874e+00, 8.998781e+00, 2.827009e+00, 1.591573e+00, 2.453123e-02 
7750, 5.459491e+00, 9.006942e+00, 2.827709e+00, 1.592622e+00, 2.452191e-02 
7760, 5.460111e+00, 9.015110e+00, 2.828409e+00, 1.593671e+00, 2.451264e-02 
7770, 5.460736e+00, 9.023286e+00, 2.829111e+00, 1.594721e+00, 2.450341e-02 
7780, 5.461364e+00, 9.031470e+00, 2.829814e+00, 1.595771e+00, 2.449422e-02 
7790, 5.461997e+00, 9.039661e+00, 2.830518e+00, 1.596821e+00, 2.448508e-02 
7800, 5.462633e+00, 9.047859e+00, 2.831223e+00, 1.597871e+00, 2.447598e-02 
7810, 5.463274e+00, 9.056065e+00, 2.831929e+00, 1.598921e+00, 2.446692e-02 
7820, 5.463918e+00, 9.064278e+00, 2.832636e+00, 1.599972e+00, 2.445791e-02 
7830, 5.464566e+00, 9.072498e+00, 2.833344e+00, 1.601023e+00, 2.444894e-02 
7840, 5.465218e+00, 9.080725e+00, 2.834053e+00, 1.602074e+00, 2.444001e-02 
7850, 5.465874e+00, 9.088959e+00, 2.834763e+00, 1.603125e+00, 2.443112e-02 
7860, 5.466534e+00, 9.097201e+00, 2.835474e+00, 1.604176e+00, 2.442227e-02 
7870, 5.467198e+00, 9.105449e+00, 2.836186e+00, 1.605228e+00, 2.441346e-02 
7880, 5.467866e+00, 9.113705e+00, 2.836899e+00, 1.606279e+00, 2.440470e-02 
7890, 5.468538e+00, 9.121967e+00, 2.837613e+00, 1.607331e+00, 2.439597e-02 
7900, 5.469213e+00, 9.130237e+00, 2.838328e+00, 1.608383e+00, 2.438729e-02 
7910, 5.469893e+00, 9.138513e+00, 2.839044e+00, 1.609435e+00, 2.437864e-02 
7920, 5.470576e+00, 9.146796e+00, 2.839761e+00, 1.610487e+00, 2.437004e-02 
7930, 5.471263e+00, 9.155086e+00, 2.840479e+00, 1.611539e+00, 2.436147e-02 
7940, 5.471954e+00, 9.163383e+00, 2.841198e+00, 1.612591e+00, 2.435294e-02 
7950, 5.472649e+00, 9.171686e+00, 2.841918e+00, 1.613644e+00, 2.434446e-02 
7960, 5.473348e+00, 9.179996e+00, 2.842638e+00, 1.614697e+00, 2.433601e-02 
7970, 5.474050e+00, 9.188313e+00, 2.843360e+00, 1.615749e+00, 2.432760e-02 
7980, 5.474756e+00, 9.196636e+00, 2.844082e+00, 1.616802e+00, 2.431923e-02 
7990, 5.475467e+00, 9.204966e+00, 2.844806e+00, 1.617855e+00, 2.431089e-02 
8000, 5.476181e+00, 9.213303e+00, 2.845530e+00, 1.618908e+00, 2.430260e-02 
8010, 5.476898e+00, 9.221645e+00, 2.846256e+00, 1.619961e+00, 2.429434e-02 
8020, 5.477620e+00, 9.229995e+00, 2.846982e+00, 1.621014e+00, 2.428612e-02 
8030, 5.478345e+00, 9.238351e+00, 2.847709e+00, 1.622067e+00, 2.427793e-02 
8040, 5.479075e+00, 9.246713e+00, 2.848437e+00, 1.623120e+00, 2.426978e-02 
8050, 5.479808e+00, 9.255081e+00, 2.849166e+00, 1.624174e+00, 2.426167e-02 
8060, 5.480544e+00, 9.263456e+00, 2.849896e+00, 1.625227e+00, 2.425360e-02 
8070, 5.481285e+00, 9.271837e+00, 2.850627e+00, 1.626280e+00, 2.424556e-02 
8080, 5.482029e+00, 9.280224e+00, 2.851358e+00, 1.627334e+00, 2.423756e-02 
8090, 5.482777e+00, 9.288618e+00, 2.852091e+00, 1.628387e+00, 2.422959e-02 
8100, 5.483529e+00, 9.297017e+00, 2.852824e+00, 1.629441e+00, 2.422166e-02 
8110, 5.484285e+00, 9.305423e+00, 2.853559e+00, 1.630494e+00, 2.421376e-02 
8120, 5.485044e+00, 9.313835e+00, 2.854294e+00, 1.631548e+00, 2.420590e-02 
8130, 5.485807e+00, 9.322252e+00, 2.855030e+00, 1.632602e+00, 2.419807e-02 
8140, 5.486573e+00, 9.330676e+00, 2.855767e+00, 1.633655e+00, 2.419028e-02 
8150, 5.487344e+00, 9.339106e+00, 2.856504e+00, 1.634709e+00, 2.418252e-02 
8160, 5.488118e+00, 9.347542e+00, 2.857243e+00, 1.635763e+00, 2.417480e-02 
8170, 5.488896e+00, 9.355984e+00, 2.857982e+00, 1.636816e+00, 2.416711e-02 
8180, 5.489677e+00, 9.364431e+00, 2.858723e+00, 1.637870e+00, 2.415946e-02 
8190, 5.490462e+00, 9.372885e+00, 2.859464e+00, 1.638924e+00, 2.415183e-02 
8200, 5.491251e+00, 9.381344e+00, 2.860206e+00, 1.639977e+00, 2.414424e-02 
8210, 5.492044e+00, 9.389809e+00, 2.860948e+00, 1.641031e+00, 2.413669e-02 
8220, 5.492840e+00, 9.398279e+00, 2.861692e+00, 1.642084e+00, 2.412916e-02 
8230, 5.493640e+00, 9.406756e+00, 2.862436e+00, 1.643138e+00, 2.412167e-02 
8240, 5.494444e+00, 9.415238e+00, 2.863182e+00, 1.644192e+00, 2.411422e-02 
8250, 5.495251e+00, 9.423726e+00, 2.863928e+00, 1.645245e+00, 2.410679e-02 
8260, 5.496061e+00, 9.432219e+00, 2.864675e+00, 1.646299e+00, 2.409940e-02 
8270, 5.496876e+00, 9.440718e+00, 2.865422e+00, 1.647352e+00, 2.409203e-02 
8280, 5.497694e+00, 9.449222e+00, 2.866171e+00, 1.648405e+00, 2.408470e-02 
8290, 5.498516e+00, 9.457732e+00, 2.866920e+00, 1.649459e+00, 2.407741e-02 
8300, 5.499341e+00, 9.466248e+00, 2.867670e+00, 1.650512e+00, 2.407014e-02 
8310, 5.500170e+00, 9.474768e+00, 2.868421e+00, 1.651565e+00, 2.406290e-02 
8320, 5.501002e+00, 9.483295e+00, 2.869172e+00, 1.652618e+00, 2.405570e-02 
8330, 5.501839e+00, 9.491827e+00, 2.869925e+00, 1.653672e+00, 2.404852e-02 
8340, 5.502678e+00, 9.500364e+00, 2.870678e+00, 1.654725e+00, 2.404138e-02 
8350, 5.503522e+00, 9.508906e+00, 2.871432e+00, 1.655778e+00, 2.403427e-02 
8360, 5.504368e+00, 9.517454e+00, 2.872187e+00, 1.656831e+00, 2.402718e-02 
8370, 5.505219e+00, 9.526007e+00, 2.872942e+00, 1.657883e+00, 2.402013e-02 
8380, 5.506073e+00, 9.534565e+00, 2.873698e+00, 1.658936e+00, 2.401311e-02 
8390, 5.506930e+00, 9.543128e+00, 2.874455e+00, 1.659989e+00, 2.400611e-02 
8400, 5.507792e+00, 9.551697e+00, 2.875213e+00, 1.661042e+00, 2.399915e-02 
8410, 5.508656e+00, 9.560270e+00, 2.875972e+00, 1.662094e+00, 2.399221e-02 
8420, 5.509524e+00, 9.568849e+00, 2.876731e+00, 1.663146e+00, 2.398531e-02 
8430, 5.510396e+00, 9.577433e+00, 2.877491e+00, 1.664199e+00, 2.397843e-02 
8440, 5.511271e+00, 9.586022e+00, 2.878252e+00, 1.665251e+00, 2.397158e-02 
8450, 5.512150e+00, 9.594616e+00, 2.879013e+00, 1.666303e+00, 2.396476e-02 
8460, 5.513032e+00, 9.603215e+00, 2.879775e+00, 1.667355e+00, 2.395797e-02 
8470, 5.513918e+00, 9.611819e+00, 2.880538e+00, 1.668407e+00, 2.395121e-02 
8480, 5.514807e+00, 9.620428e+00, 2.881302e+00, 1.669459e+00, 2.394447e-02 
8490, 5.515700e+00, 9.629042e+00, 2.882066e+00, 1.670510e+00, 2.393776e-02 
8500, 5.516597e+00, 9.637661e+00, 2.882831e+00, 1.671562e+00, 2.393108e-02 
8510, 5.517496e+00, 9.646285e+00, 2.883597e+00, 1.672613e+00, 2.392443e-02 
8520, 5.518400e+00, 9.654913e+00, 2.884363e+00, 1.673664e+00, 2.391781e-02 
8530, 5.519306e+00, 9.663546e+00, 2.885131e+00, 1.674716e+00, 2.391121e-02 
8540, 5.520217e+00, 9.672184e+00, 2.885898e+00, 1.675767e+00, 2.390464e-02 
8550, 5.521130e+00, 9.680827e+00, 2.886667e+00, 1.676817e+00, 2.389810e-02 
8560, 5.522047e+00, 9.689475e+00, 2.887436e+00, 1.677868e+00, 2.389158e-02 
8570, 5.522968e+00, 9.698127e+00, 2.888206e+00, 1.678919e+00, 2.388509e-02 
8580, 5.523892e+00, 9.706784e+00, 2.888977e+00, 1.679969e+00, 2.387863e-02 
8590, 5.524819e+00, 9.715446e+00, 2.889748e+00, 1.681019e+00, 2.387219e-02 
8600, 5.525750e+00, 9.724112e+00, 2.890520e+00, 1.682069e+00, 2.386578e-02 
8610, 5.526684e+00, 9.732783e+00, 2.891293e+00, 1.683119e+00, 2.385939e-02 
8620, 5.527622e+00, 9.741458e+00, 2.892066e+00, 1.684169e+00, 2.385304e-02 
8630, 5.528563e+00, 9.750138e+00, 2.892840e+00, 1.685219e+00, 2.384670e-02 
8640, 5.529507e+00, 9.758823e+00, 2.893615e+00, 1.686268e+00, 2.384039e-02 
8650, 5.530455e+00, 9.767512e+00, 2.894390e+00, 1.687318e+00, 2.383411e-02 
8660, 5.531407e+00, 9.776205e+00, 2.895166e+00, 1.688367e+00, 2.382785e-02 
8670, 5.532361e+00, 9.784903e+00, 2.895943e+00, 1.689416e+00, 2.382162e-02 
8680, 5.533319e+00, 9.793606e+00, 2.896720e+00, 1.690464e+00, 2.381542e-02 
8690, 5.534281e+00, 9.802312e+00, 2.897498e+00, 1.691513e+00, 2.380923e-02 
8700, 5.535246e+00, 9.811024e+00, 2.898277e+00, 1.692561e+00, 2.380308e-02 
8710, 5.536214e+00, 9.819739e+00, 2.899056e+00, 1.693610e+00, 2.379694e-02 
8720, 5.537185e+00, 9.828459e+00, 2.899836e+00, 1.694658e+00, 2.379083e-02 
8730, 5.538160e+00, 9.837183e+00, 2.900617e+00, 1.695705e+00, 2.378475e-02 
8740, 5.539138e+00, 9.845912e+00, 2.901398e+00, 1.696753e+00, 2.377869e-02 
8750, 5.540120e+00, 9.854644e+00, 2.902180e+00, 1.697801e+00, 2.377265e-02 
8760, 5.541105e+00, 9.863381e+00, 2.902962e+00, 1.698848e+00, 2.376664e-02 
8770, 5.542093e+00, 9.872122e+00, 2.903745e+00, 1.699895e+00, 2.376065e-02 
8780, 5.543084e+00, 9.880868e+00, 2.904529e+00, 1.700942e+00, 2.375469e-02 
8790, 5.544079e+00, 9.889617e+00, 2.905313e+00, 1.701988e+00, 2.374874e-02 
8800, 5.545077e+00, 9.898371e+00, 2.906098e+00, 1.703035e+00, 2.374283e-02 
8810, 5.546079e+00, 9.907129e+00, 2.906883e+00, 1.704081e+00, 2.373693e-02 
8820, 5.547084e+00, 9.915891e+00, 2.907669e+00, 1.705127e+00, 2.373106e-02 
8830, 5.548092e+00, 9.924657e+00, 2.908456e+00, 1.706173e+00, 2.372521e-02 
8840, 5.549103e+00, 9.933427e+00, 2.909243e+00, 1.707218e+00, 2.371938e-02 
8850, 5.550118e+00, 9.942201e+00, 2.910031e+00, 1.708264e+00, 2.371358e-02 
8860, 5.551136e+00, 9.950979e+00, 2.910820e+00, 1.709309e+00, 2.370780e-02 
8870, 5.552157e+00, 9.959761e+00, 2.911609e+00, 1.710354e+00, 2.370204e-02 
8880, 5.553181e+00, 9.968547e+00, 2.912398e+00, 1.711398e+00, 2.369630e-02 
8890, 5.554209e+00, 9.977337e+00, 2.913189e+00, 1.712443e+00, 2.369059e-02 
8900, 5.555240e+00, 9.986131e+00, 2.913980e+00, 1.713487e+00, 2.368489e-02 
8910, 5.556274e+00, 9.994929e+00, 2.914771e+00, 1.714531e+00, 2.367922e-02 
8920, 5.557311e+00, 1.000373e+01, 2.915563e+00, 1.715574e+00, 2.367357e-02 
8930, 5.558352e+00, 1.001254e+01, 2.916355e+00, 1.716618e+00, 2.366795e-02 
8940, 5.559396e+00, 1.002135e+01, 2.917149e+00, 1.717661e+00, 2.366234e-02 
8950, 5.560443e+00, 1.003016e+01, 2.917942e+00, 1.718704e+00, 2.365676e-02 
8960, 5.561494e+00, 1.003898e+01, 2.918737e+00, 1.719747e+00, 2.365119e-02 
8970, 5.562547e+00, 1.004780e+01, 2.919531e+00, 1.720789e+00, 2.364565e-02 
8980, 5.563604e+00, 1.005662e+01, 2.920327e+00, 1.721832e+00, 2.364013e-02 
8990, 5.564664e+00, 1.006545e+01, 2.921123e+00, 1.722873e+00, 2.363463e-02 
9000, 5.565727e+00, 1.007428e+01, 2.921919e+00, 1.723915e+00, 2.362915e-02 
9010, 5.566794e+00, 1.008312e+01, 2.922716e+00, 1.724957e+00, 2.362369e-02 
9020, 5.567863e+00, 1.009196e+01, 2.923514e+00, 1.725998e+00, 2.361825e-02 
9030, 5.568936e+00, 1.010080e+01, 2.924312e+00, 1.727039e+00, 2.361284e-02 
9040, 5.570012e+00, 1.010965e+01, 2.925110e+00, 1.728079e+00, 2.360744e-02 
9050, 5.571091e+00, 1.011850e+01, 2.925910e+00, 1.729120e+00, 2.360206e-02 
9060, 5.572174e+00, 1.012735e+01, 2.926709e+00, 1.730160e+00, 2.359671e-02 
9070, 5.573259e+00, 1.013621e+01, 2.927510e+00, 1.731200e+00, 2.359137e-02 
9080, 5.574348e+00, 1.014507e+01, 2.928310e+00, 1.732239e+00, 2.358605e-02 
9090, 5.575439e+00, 1.015393e+01, 2.929112e+00, 1.733279e+00, 2.358076e-02 
9100, 5.576535e+00, 1.016280e+01, 2.929913e+00, 1.734318e+00, 2.357548e-02 
9110, 5.577633e+00, 1.017167e+01, 2.930716e+00, 1.735357e+00, 2.357022e-02 
9120, 5.578734e+00, 1.018055e+01, 2.931519e+00, 1.736395e+00, 2.356498e-02 
9130, 5.579838e+00, 1.018943e+01, 2.932322e+00, 1.737433e+00, 2.355976e-02 
9140, 5.580946e+00, 1.019831e+01, 2.933126e+00, 1.738471e+00, 2.355456e-02 
9150, 5.582056e+00, 1.020720e+01, 2.933930e+00, 1.739509e+00, 2.354938e-02 
9160, 5.583170e+00, 1.021608e+01, 2.934735e+00, 1.740546e+00, 2.354422e-02 
9170, 5.584287e+00, 1.022498e+01, 2.935541e+00, 1.741583e+00, 2.353908e-02 
9180, 5.585407e+00, 1.023387e+01, 2.936347e+00, 1.742620e+00, 2.353396e-02 
9190, 5.586530e+00, 1.024277e+01, 2.937153e+00, 1.743656e+00, 2.352885e-02 
9200, 5.587656e+00, 1.025167e+01, 2.937960e+00, 1.744693e+00, 2.352376e-02 
9210, 5.588785e+00, 1.026058e+01, 2.938767e+00, 1.745728e+00, 2.351870e-02 
9220, 5.589918e+00, 1.026949e+01, 2.939575e+00, 1.746764e+00, 2.351365e-02 
9230, 5.591053e+00, 1.027840e+01, 2.940384e+00, 1.747799e+00, 2.350862e-02 
9240, 5.592192e+00, 1.028732e+01, 2.941192e+00, 1.748834e+00, 2.350360e-02 
9250, 5.593333e+00, 1.029623e+01, 2.942002e+00, 1.749869e+00, 2.349861e-02 
9260, 5.594478e+00, 1.030516e+01, 2.942812e+00, 1.750903e+00, 2.349363e-02 
9270, 5.595625e+00, 1.031408e+01, 2.943622e+00, 1.751937e+00, 2.348867e-02 
9280, 5.596776e+00, 1.032301e+01, 2.944433e+00, 1.752971e+00, 2.348373e-02 
9290, 5.597930e+00, 1.033194e+01, 2.945244e+00, 1.754005e+00, 2.347881e-02 
9300, 5.599087e+00, 1.034088e+01, 2.946056e+00, 1.755038e+00, 2.347391e-02 
9310, 5.600247e+00, 1.034982e+01, 2.946868e+00, 1.756071e+00, 2.346902e-02 
9320, 5.601410e+00, 1.035876e+01, 2.947681e+00, 1.757103e+00, 2.346415e-02 
9330, 5.602576e+00, 1.036770e+01, 2.948494e+00, 1.758135e+00, 2.345930e-02 
9340, 5.603745e+00, 1.037665e+01, 2.949307e+00, 1.759167e+00, 2.345446e-02 
9350, 5.604917e+00, 1.038560e+01, 2.950121e+00, 1.760199e+00, 2.344964e-02 
9360, 5.606092e+00, 1.039455e+01, 2.950936e+00, 1.761230e+00, 2.344484e-02 
9370, 5.607270e+00, 1.040351e+01, 2.951751e+00, 1.762261e+00, 2.344006e-02 
9380, 5.608451e+00, 1.041247e+01, 2.952566e+00, 1.763291e+00, 2.343529e-02 
9390, 5.609635e+00, 1.042143e+01, 2.953382e+00, 1.764322e+00, 2.343054e-02 
9400, 5.610822e+00, 1.043040e+01, 2.954198e+00, 1.765351e+00, 2.342581e-02 
9410, 5.612012e+00, 1.043937e+01, 2.955015e+00, 1.766381e+00, 2.342109e-02 
9420, 5.613206e+00, 1.044834e+01, 2.955832e+00, 1.767410e+00, 2.341639e-02 
9430, 5.614402e+00, 1.045731e+01, 2.956650e+00, 1.768439e+00, 2.341171e-02 
9440, 5.615601e+00, 1.046629e+01, 2.957468e+00, 1.769468e+00, 2.340704e-02 
9450, 5.616803e+00, 1.047527e+01, 2.958287e+00, 1.770496e+00, 2.340239e-02 
9460, 5.618008e+00, 1.048425e+01, 2.959106e+00, 1.771524e+00, 2.339775e-02 
9470, 5.619216e+00, 1.049324e+01, 2.959925e+00, 1.772552e+00, 2.339314e-02 
9480, 5.620427e+00, 1.050223e+01, 2.960745e+00, 1.773579e+00, 2.338853e-02 
9490, 5.621641e+00, 1.051122e+01, 2.961565e+00, 1.774606e+00, 2.338395e-02 
9500, 5.622858e+00, 1.052022e+01, 2.962386e+00, 1.775632e+00, 2.337938e-02 
9510, 5.624077e+00, 1.052921e+01, 2.963207e+00, 1.776659e+00, 2.337482e-02 
9520, 5.625300e+00, 1.053821e+01, 2.964028e+00, 1.777685e+00, 2.337028e-02 
9530, 5.626526e+00, 1.054722e+01, 2.964850e+00, 1.778710e+00, 2.336576e-02 
9540, 5.627755e+00, 1.055622e+01, 2.965672e+00, 1.779735e+00, 2.336125e-02 
9550, 5.628986e+00, 1.056523e+01, 2.966495e+00, 1.780760e+00, 2.335676e-02 
9560, 5.630221e+00, 1.057424e+01, 2.967318e+00, 1.781785e+00, 2.335228e-02 
9570, 5.631458e+00, 1.058326e+01, 2.968142e+00, 1.782809e+00, 2.334782e-02 
9580, 5.632699e+00, 1.059228e+01, 2.968966e+00, 1.783833e+00, 2.334337e-02 
9590, 5.633942e+00, 1.060130e+01, 2.969790e+00, 1.784856e+00, 2.333894e-02 
9600, 5.635188e+00, 1.061032e+01, 2.970615e+00, 1.785879e+00, 2.333453e-02 
9610, 5.636437e+00, 1.061934e+01, 2.971440e+00, 1.786902e+00, 2.333013e-02 
9620, 5.637689e+00, 1.062837e+01, 2.972266e+00, 1.787924e+00, 2.332574e-02 
9630, 5.638944e+00, 1.063740e+01, 2.973092e+00, 1.788946e+00, 2.332137e-02 
9640, 5.640202e+00, 1.064644e+01, 2.973918e+00, 1.789968e+00, 2.331701e-02 
9650, 5.641463e+00, 1.065547e+01, 2.974745e+00, 1.790989e+00, 2.331267e-02 
9660, 5.642726e+00, 1.066451e+01, 2.975572e+00, 1.792010e+00, 2.330834e-02 
9670, 5.643993e+00, 1.067355e+01, 2.976399e+00, 1.793031e+00, 2.330403e-02 
9680, 5.645262e+00, 1.068260e+01, 2.977227e+00, 1.794051e+00, 2.329973e-02 
9690, 5.646534e+00, 1.069164e+01, 2.978055e+00, 1.795071e+00, 2.329545e-02 
9700, 5.647809e+00, 1.070069e+01, 2.978884e+00, 1.796091e+00, 2.329118e-02 
9710, 5.649087e+00, 1.070974e+01, 2.979713e+00, 1.797110e+00, 2.328693e-02 
9720, 5.650368e+00, 1.071880e+01, 2.980543e+00, 1.798128e+00, 2.328268e-02 
9730, 5.651652e+00, 1.072785e+01, 2.981372e+00, 1.799147e+00, 2.327846e-02 
9740, 5.652938e+00, 1.073691e+01, 2.982202e+00, 1.800165e+00, 2.327424e-02 
9750, 5.654228e+00, 1.074597e+01, 2.983033e+00, 1.801183e+00, 2.327005e-02 
9760, 5.655520e+00, 1.075504e+01, 2.983864e+00, 1.802200e+00, 2.326586e-02 
9770, 5.656815e+00, 1.076411e+01, 2.984695e+00, 1.803217e+00, 2.326169e-02 
9780, 5.658113e+00, 1.077317e+01, 2.985527e+00, 1.804233e+00, 2.325753e-02 
9790, 5.659414e+00, 1.078224e+01, 2.986359e+00, 1.805249e+00, 2.325339e-02 
9800, 5.660717e+00, 1.079132e+01, 2.987191e+00, 1.806265e+00, 2.324926e-02 
9810, 5.662024e+00, 1.080040e+01, 2.988024e+00, 1.807281e+00, 2.324514e-02 
9820, 5.663333e+00, 1.080947e+01, 2.988857e+00, 1.808296e+00, 2.324104e-02 
9830, 5.664645e+00, 1.081856e+01, 2.989690e+00, 1.809310e+00, 2.323695e-02 
9840, 5.665960e+00, 1.082764e+01, 2.990524e+00, 1.810325e+00, 2.323288e-02 
9850, 5.667277e+00, 1.083672e+01, 2.991358e+00, 1.811339e+00, 2.322881e-02 
9860, 5.668598e+00, 1.084581e+01, 2.992193e+00, 1.812352e+00, 2.322476e-02 
9870, 5.669921e+00, 1.085490e+01, 2.993028e+00, 1.813365e+00, 2.322073e-02 
9880, 5.671247e+00, 1.086400e+01, 2.993863e+00, 1.814378e+00, 2.321670e-02 
9890, 5.672576e+00, 1.087309e+01, 2.994698e+00, 1.815390e+00, 2.321270e-02 
9900, 5.673908e+00, 1.088219e+01, 2.995534e+00, 1.816402e+00, 2.320870e-02 
9910, 5.675242e+00, 1.089129e+01, 2.996370e+00, 1.817414e+00, 2.320471e-02 
9920, 5.676579e+00, 1.090039e+01, 2.997207e+00, 1.818425e+00, 2.320074e-02 
9930, 5.677919e+00, 1.090950e+01, 2.998044e+00, 1.819436e+00, 2.319678e-02 
9940, 5.679262e+00, 1.091860e+01, 2.998881e+00, 1.820446e+00, 2.319284e-02 
9950, 5.680607e+00, 1.092771e+01, 2.999718e+00, 1.821456e+00, 2.318890e-02 
9960, 5.681956e+00, 1.093682e+01, 3.000556e+00, 1.822466e+00, 2.318498e-02 
9970, 5.683307e+00, 1.094594e+01, 3.001395e+00, 1.823475e+00, 2.318108e-02 
9980, 5.684661e+00, 1.095505e+01, 3.002233e+00, 1.824484e+00, 2.317718e-02 
9990, 5.686017e+00, 1.096417e+01, 3.003072e+00, 1.825493e+00, 2.317330e-02 
10000, 5.687376e+00, 1.097329e+01, 3.003911e+00, 1.826501e+00, 2.316943e-02 
